WetView ver 7.1	07-17-2018	16:21:06
AC9 Absorption and Attenuation Meter
00000266		; Serial number
2	; structure version number
Reserved
0.000000	0.000000		; Depth calibration
19200			; Baud rate
0.100000			; Path length (meters)
31			; number of temperature calibration bins
				12.59339	13.44920	14.48425	15.49668	16.50852	17.49564	18.50545	19.52458	20.50176	21.48889	22.47318	23.48707	24.50962	25.49370	26.49784	27.51372	28.50746	29.47237	30.47938	31.50214	32.50470	33.49235	34.50337	35.50914	36.50618	37.52058	38.51018	39.51308	40.49994	41.49866	42.47204	; temperature bins
a650	Blue	20.34952		-0.00383	-0.00415	-0.00430	-0.00391	-0.00363	-0.00317	-0.00269	-0.00237	-0.00179	-0.00130	-0.00099	-0.00071	-0.00015	0.00000	0.00004	-0.00001	0.00015	0.00036	0.00058	0.00101	0.00161	0.00132	0.00160	0.00169	0.00242	0.00273	0.00336	0.00365	0.00427	0.00566	0.00670		; offset and temperature correction info
a676	Green	20.51193		-0.00398	-0.00384	-0.00360	-0.00306	-0.00302	-0.00255	-0.00235	-0.00212	-0.00163	-0.00136	-0.00118	-0.00089	-0.00029	0.00000	0.00068	0.00082	0.00099	0.00137	0.00145	0.00212	0.00260	0.00252	0.00321	0.00354	0.00457	0.00535	0.00617	0.00648	0.00742	0.00887	0.01002		; offset and temperature correction info
a715	Brown	20.23230		-0.00421	-0.00394	-0.00391	-0.00291	-0.00264	-0.00192	-0.00204	-0.00179	-0.00188	-0.00239	-0.00180	-0.00187	-0.00099	0.00000	0.00084	0.00162	0.00188	0.00224	0.00321	0.00381	0.00466	0.00528	0.00588	0.00696	0.00859	0.01041	0.01148	0.01282	0.01333	0.01456	0.01617		; offset and temperature correction info
c510	Red	20.40042		-0.00261	-0.00247	-0.00258	-0.00225	-0.00203	-0.00197	-0.00199	-0.00203	-0.00154	-0.00103	-0.00069	-0.00019	-0.00007	0.00000	0.00011	-0.00021	-0.00042	-0.00056	-0.00040	0.00011	0.00036	0.00050	0.00077	0.00079	0.00050	0.00042	0.00043	0.00092	0.00147	0.00200	0.00232		; offset and temperature correction info
c532	Magenta	20.40760		-0.00248	-0.00265	-0.00278	-0.00279	-0.00296	-0.00292	-0.00238	-0.00206	-0.00129	-0.00096	-0.00092	-0.00052	-0.00009	0.00000	0.00007	-0.00049	-0.00136	-0.00107	-0.00079	-0.00065	-0.00074	-0.00105	-0.00152	-0.00192	-0.00236	-0.00269	-0.00252	-0.00233	-0.00172	-0.00128	-0.00067		; offset and temperature correction info
c555	Black	20.50654		-0.00053	-0.00063	-0.00106	-0.00094	-0.00068	-0.00055	-0.00053	-0.00039	-0.00028	-0.00025	-0.00011	-0.00035	-0.00007	0.00000	-0.00037	-0.00055	-0.00036	-0.00014	0.00019	0.00044	0.00032	0.00040	0.00050	0.00028	0.00014	0.00013	0.00030	0.00073	0.00117	0.00176	0.00241		; offset and temperature correction info
a412	LtBlue	17.15231		-0.01972	-0.01823	-0.01612	-0.01381	-0.01272	-0.01080	-0.00959	-0.00866	-0.00710	-0.00532	-0.00354	-0.00148	-0.00028	0.00000	0.00176	0.00297	0.00394	0.00440	0.00453	0.00487	0.00804	0.00856	0.01065	0.01248	0.01388	0.01439	0.01659	0.01881	0.02256	0.02450	0.02719		; offset and temperature correction info
a440	LtGreen	18.00171		-0.00729	-0.00642	-0.00581	-0.00502	-0.00426	-0.00349	-0.00244	-0.00218	-0.00179	-0.00101	-0.00046	-0.00006	0.00036	0.00000	0.00040	0.00045	0.00030	-0.00015	-0.00024	-0.00035	0.00012	-0.00013	-0.00033	-0.00089	-0.00142	-0.00189	-0.00231	-0.00205	-0.00140	-0.00140	-0.00146		; offset and temperature correction info
a488	Yellow	18.86491		-0.00113	-0.00102	-0.00106	-0.00064	-0.00027	-0.00020	-0.00030	-0.00037	-0.00047	-0.00059	-0.00052	-0.00012	0.00008	0.00000	0.00025	0.00012	-0.00013	-0.00043	-0.00065	-0.00076	-0.00025	0.00010	0.00090	0.00111	0.00113	0.00104	0.00073	0.00068	0.00120	0.00186	0.00258		; offset and temperature correction info
c650	Blue	20.46075		-0.00145	-0.00097	-0.00092	-0.00139	-0.00185	-0.00196	-0.00237	-0.00266	-0.00238	-0.00163	-0.00083	-0.00041	-0.00010	0.00000	0.00005	-0.00001	0.00015	0.00034	0.00029	0.00065	0.00101	0.00164	0.00126	0.00156	0.00175	0.00270	0.00287	0.00371	0.00407	0.00473	0.00534		; offset and temperature correction info
c676	Green	20.10118		-0.00170	-0.00144	-0.00149	-0.00177	-0.00188	-0.00194	-0.00198	-0.00196	-0.00177	-0.00156	-0.00140	-0.00091	-0.00033	0.00000	0.00050	0.00092	0.00110	0.00141	0.00167	0.00199	0.00216	0.00265	0.00269	0.00289	0.00315	0.00374	0.00367	0.00408	0.00486	0.00561	0.00646		; offset and temperature correction info
c715	Brown	19.91219		-0.01201	-0.01097	-0.00859	-0.00680	-0.00651	-0.00592	-0.00535	-0.00440	-0.00387	-0.00303	-0.00222	-0.00153	-0.00028	0.00000	0.00093	0.00149	0.00247	0.00322	0.00330	0.00427	0.00373	0.00464	0.00536	0.00551	0.00643	0.00733	0.00779	0.00884	0.00899	0.01021	0.01120		; offset and temperature correction info
a510	Red	19.21192		0.00201	0.00193	0.00158	0.00098	0.00089	0.00049	0.00011	-0.00016	-0.00016	-0.00005	0.00028	0.00025	0.00006	0.00000	0.00035	-0.00022	-0.00023	-0.00080	-0.00144	-0.00154	-0.00153	-0.00204	-0.00220	-0.00219	-0.00190	-0.00128	-0.00069	-0.00018	0.00068	0.00152	0.00241		; offset and temperature correction info
a532	Magenta	19.41084		-0.00097	-0.00072	-0.00060	-0.00081	-0.00062	-0.00071	-0.00040	0.00020	0.00028	0.00043	0.00000	-0.00035	0.00007	0.00000	-0.00011	-0.00059	-0.00080	-0.00098	-0.00137	-0.00162	-0.00163	-0.00130	-0.00073	-0.00018	0.00090	0.00185	0.00175	0.00247	0.00291	0.00327	0.00349		; offset and temperature correction info
a555	Black	19.69776		0.00171	0.00183	0.00183	0.00186	0.00191	0.00170	0.00115	0.00131	0.00097	0.00073	0.00060	0.00013	0.00015	0.00000	0.00014	-0.00029	-0.00066	-0.00082	-0.00116	-0.00139	-0.00134	-0.00167	-0.00119	-0.00093	-0.00048	0.00053	0.00111	0.00095	0.00178	0.00206	0.00273		; offset and temperature correction info
c412	LtBlue	19.91180		-0.02051	-0.01853	-0.01589	-0.01311	-0.01059	-0.00877	-0.00705	-0.00581	-0.00413	-0.00231	-0.00098	-0.00066	-0.00011	0.00000	-0.00013	-0.00085	-0.00170	-0.00170	-0.00302	-0.00330	-0.00429	-0.00551	-0.00626	-0.00775	-0.00978	-0.01181	-0.01113	-0.01108	-0.01116	-0.01192	-0.01291		; offset and temperature correction info
c440	LtGreen	20.06241		-0.01064	-0.00992	-0.00892	-0.00766	-0.00639	-0.00531	-0.00478	-0.00384	-0.00287	-0.00187	-0.00102	-0.00063	-0.00023	0.00000	-0.00007	-0.00053	-0.00090	-0.00119	-0.00169	-0.00197	-0.00226	-0.00257	-0.00260	-0.00289	-0.00394	-0.00470	-0.00481	-0.00493	-0.00520	-0.00580	-0.00620		; offset and temperature correction info
c488	Yellow	20.35984		-0.01125	-0.01082	-0.00966	-0.00833	-0.00726	-0.00661	-0.00579	-0.00500	-0.00389	-0.00278	-0.00167	-0.00113	-0.00041	0.00000	0.00055	0.00121	0.00187	0.00226	0.00222	0.00251	0.00281	0.00359	0.00414	0.00427	0.00401	0.00404	0.00486	0.00563	0.00638	0.00684	0.00718		; offset and temperature correction info
0.003500	0.004000	0.015000	0.020000	0.015000	0.020000	2500.000000	2000.000000	1000.000000	; maxANoise	maxCNoise	maxADifference	maxCDifference	minACounts	minCCounts	minRCounts	maxTempSdev	maxDepthSdev
0			; auxilliary capabilities
1			; acquisition binsize
0	6.96878	6.26755	6.20839	24.69097	12.42543	19.07231	8.64450	6.28373	6.29708	6.62556	13.65219	22.57251	5.36332	9.36163	9.43521	26.13100	19.73243	11.85123	23.43	6.1	0.00	7.22	0.01277	0.01291	0.01683	0.00776	0.00578	0.00634	0.00470	0.01269	0.01691	0.00673	0.00683	0.00893	0.01493	0.01100	0.01200	0.00217	0.00615	0.00865
160	4.94355	7.68874	7.33560	26.05400	29.75817	20.68237	15.74026	13.57687	8.61561	16.44114	45.09649	34.43842	8.61497	8.48000	10.72473	43.50786	42.89469	37.07680
320	9.08771	10.82424	10.89514	60.61314	58.69188	72.78978	14.50056	10.15828	10.06577	41.54830	33.20568	38.64036	10.41737	14.59994	10.14806	82.75958	72.46814	74.32604
490	10.88419	15.06027	16.91897	65.89717	32.95703	53.92706	21.05656	18.88097	15.36731	92.03739	90.15530	88.97823	20.12574	21.04744	18.77994	89.11947	135.51263	139.21809
650	20.45924	20.54228	15.51034	44.77479	58.32871	42.18872	21.74330	16.57291	15.49750	26.56236	22.31029	28.24395	16.18252	16.98315	16.36227	59.10674	46.73184	54.31165
820	15.01342	16.01835	16.85541	77.59869	32.31316	40.21894	20.93318	15.84287	14.24735	72.29027	43.26125	58.45081	18.65570	16.69719	13.91480	35.49351	22.20459	36.96057
980	14.33821	13.20869	13.11971	29.54294	17.43331	19.32923	17.89936	14.00126	15.14624	45.18876	33.39007	17.80596	11.45431	11.10317	11.43636	44.62781	47.48891	33.89633
1150	11.47027	11.65551	10.52284	32.63317	35.58010	28.33729	15.73177	13.85792	15.89613	37.67291	27.36864	27.75009	12.98130	10.72817	7.55670	67.30274	33.45821	16.74839
1310	10.03951	9.96461	7.21770	30.15344	19.80925	21.27656	12.60139	11.77094	9.86226	33.75529	10.59939	20.25854	8.61746	10.11485	9.71559	17.71450	14.20609	13.52653
1470	6.54280	7.89282	6.42999	20.89616	15.11768	14.61621	10.64115	12.32474	6.37619	18.29202	22.88179	25.36360	6.60226	11.36330	10.70362	20.03220	23.07931	21.35922
1640	9.83947	7.75933	10.08278	48.36802	23.67092	40.50766	11.75542	6.70694	12.38840	31.31803	34.47295	54.64963	13.59849	11.95927	13.03987	60.69964	32.20548	28.52446	23.49	6.2	0.00	7.32	0.01277	0.01291	0.01683	0.00776	0.00578	0.00634	0.00470	0.01269	0.01691	0.00674	0.00683	0.00893	0.01493	0.01100	0.01200	0.00217	0.00615	0.00865
1800	11.60798	8.11703	10.52144	58.41719	61.42929	91.13709	12.45681	13.83949	11.62097	31.92385	39.01411	39.35094	12.98124	14.18625	12.43288	43.13952	35.06958	33.93551
1970	9.99196	12.17805	12.23212	40.57094	51.55188	22.49607	14.06265	7.44692	13.00365	28.34536	28.01489	76.02019	10.98442	10.45338	12.75018	47.20397	60.05774	46.93531
2130	11.95199	10.27124	4.63370	38.92767	17.49628	22.03758	10.19569	9.54977	9.01856	40.77198	41.79408	42.09374	10.61358	9.99046	8.20922	32.98794	38.02752	49.07165
2300	13.13236	15.49308	13.26661	59.46048	37.25114	39.94728	22.86048	18.02877	13.79440	41.86200	39.00891	27.37788	13.86030	13.29083	10.15758	53.39436	42.89940	23.76985
2460	6.39402	5.28250	9.51288	71.29487	75.54478	48.09644	14.21675	13.19755	13.25182	32.24959	31.40513	38.26284	13.56685	13.51833	13.65410	53.51215	36.03516	40.44520
2620	13.34934	10.64539	9.97686	34.46109	30.66502	41.06376	14.58485	15.33967	12.12641	35.82584	24.55516	14.69979	10.80105	10.62390	12.73641	48.36605	33.34363	20.02262
2790	9.48643	7.92077	8.87473	37.75566	21.31953	13.92925	11.52005	10.77777	7.25249	45.33974	28.84521	27.79062	14.49555	12.95710	14.25444	27.62311	17.10101	27.00458
2950	11.43766	10.45014	9.30646	21.77135	18.99756	37.11378	16.94077	15.92247	12.22545	18.70024	22.06089	41.33549	9.69667	11.64662	9.94230	36.63121	34.55941	35.11820
3120	12.68476	11.54857	10.10708	33.33970	44.37048	32.01543	16.43780	16.14937	13.77688	44.41660	39.62560	34.37591	12.26249	11.71586	11.41078	68.56478	35.17789	16.76012
3280	8.02530	9.83806	10.34795	42.28510	32.58021	49.79509	16.63234	14.21328	12.28030	35.41247	41.50635	29.23034	12.65380	11.73078	9.44397	31.45978	38.87200	37.83886	23.43	6.0	0.00	7.36	0.01277	0.01291	0.01683	0.00776	0.00578	0.00634	0.00469	0.01268	0.01691	0.00674	0.00683	0.00893	0.01493	0.01100	0.01200	0.00217	0.00615	0.00865
3440	11.25700	11.93357	9.40528	20.98689	19.76294	31.82921	14.35406	12.28312	12.66289	36.10849	28.17162	21.27620	5.75901	6.24736	7.42817	27.62460	17.89191	15.41688
3610	8.21499	9.30217	8.12614	11.98938	18.85009	25.87551	13.19395	9.08507	10.14853	18.33991	10.01394	9.41093	8.14474	4.86638	5.47845	30.27711	12.96933	18.17207
3770	8.74349	5.97725	5.57460	24.43419	39.85941	9.55358	14.44351	13.91238	11.44507	12.90554	14.53962	16.99042	11.02750	9.86035	8.81426	25.66682	24.65274	30.65251
3940	7.64948	7.74663	5.73134	30.61662	29.81223	23.64562	9.37664	8.44258	7.79329	14.74537	20.51486	14.26962	6.42510	2.58657	4.50927	13.87652	17.07773	18.98743
4100	6.84318	5.84887	4.50306	12.25222	17.45176	21.81506	17.50719	8.63947	9.05509	22.47684	19.21165	22.98799	6.61390	8.71985	8.79893	65.13448	70.91320	52.08369
4260	5.31618	8.17202	8.13744	40.00214	26.84404	22.62883	16.84130	17.30781	11.84721	38.94928	41.98951	30.31715	12.13035	10.72650	9.62987	47.42097	39.36019	26.70585
4430	7.76398	9.68092	7.84765	40.17485	34.03684	45.55560	16.77348	10.65439	11.04234	24.67052	23.12150	20.16665	7.64161	7.63648	7.91755	16.61556	30.09468	30.55789
4590	7.15585	5.57398	9.32680	8.55088	26.32946	16.64849	13.57122	10.99339	9.79482	28.26766	20.55640	23.31134	6.77415	9.33572	7.05843	28.42660	19.14958	17.15245
4760	6.43335	8.51747	8.89056	21.61843	23.12731	15.70789	11.24972	8.25887	7.18973	12.12312	20.25575	18.17110	8.73968	9.29354	8.50193	26.38623	21.92406	24.27379
4920	6.30020	5.29389	7.12619	17.55969	16.49419	21.73021	9.35473	7.92537	8.04004	36.14860	20.59840	19.44379	12.25076	9.17246	12.81427	31.82237	35.04940	32.68912	23.43	6.0	0.00	7.27	0.01277	0.01291	0.01683	0.00776	0.00578	0.00633	0.00469	0.01268	0.01691	0.00673	0.00683	0.00893	0.01493	0.01100	0.01200	0.00217	0.00615	0.00865
5090	10.99635	12.46647	10.77973	22.17899	21.29051	30.95028	12.86696	10.38236	5.01113	32.89079	36.15080	27.84847	5.43041	4.11752	4.71903	39.36856	18.24968	11.40941
5250	6.08595	4.00453	4.75329	14.25036	24.30704	19.10124	12.39948	11.44348	9.95142	32.68645	21.32207	39.58811	12.27435	9.85044	11.79272	28.64391	50.26445	35.97504
5410	10.70589	9.65204	8.89848	27.46518	23.96185	22.35132	15.92063	12.91551	12.45895	41.84575	21.17173	26.90235	10.38177	12.44480	8.27502	35.85266	20.46461	22.61270
5580	5.59941	7.30925	8.65216	21.52441	21.95775	32.25234	12.79149	11.66614	9.17606	21.96703	28.49141	32.74201	9.94811	8.41416	7.93904	33.10748	32.42926	25.73911
5740	5.35312	4.88478	2.74316	19.73268	10.24001	8.09475	8.71561	5.75544	12.66054	10.75429	12.80180	20.05410	9.54981	8.82667	11.33770	30.66282	22.68795	34.16245
5910	10.45688	10.21411	8.53453	23.36916	17.77218	25.57316	14.14684	11.17262	8.85782	60.69799	39.42880	41.25682	7.29330	14.46087	9.98101	21.27513	30.07909	30.16109
6070	7.49675	5.59880	6.81431	14.80467	16.57702	26.76300	15.70809	10.15148	9.34405	29.73261	25.52421	24.27068	11.11205	10.02916	8.19399	37.84106	28.97217	27.25979
6240	11.73661	14.92808	12.12862	36.09576	29.63307	32.76633	17.74975	12.82080	11.82166	25.72467	15.78946	23.88002	9.24674	8.32786	11.09659	37.81964	27.53683	34.42955
6400	10.37784	10.01258	11.93498	39.72151	38.08506	21.48172	12.17574	12.58029	14.02437	48.51627	27.09080	27.77683	11.11059	9.32115	7.48649	16.85372	32.79172	36.16167
6570	7.96250	6.51310	5.09626	17.65701	25.41561	30.49126	9.51834	10.84571	11.58391	60.55851	36.52614	25.09548	8.58556	8.96006	8.81580	47.59754	37.89027	32.01693	23.49	6.2	0.00	7.26	0.01277	0.01291	0.01683	0.00776	0.00578	0.00634	0.00469	0.01268	0.01691	0.00673	0.00683	0.00893	0.01493	0.01100	0.01200	0.00217	0.00615	0.00865
6730	13.43036	10.29333	6.72752	15.46739	18.91293	13.05160	12.76148	14.71194	10.93969	9.70803	14.13179	25.13625	9.44854	9.78558	11.70437	22.02096	24.06021	21.99808
6890	11.20478	7.97716	9.24746	57.98162	46.03249	51.22587	12.38607	12.26622	9.66813	50.73010	37.59007	54.99780	11.05983	13.91551	9.40317	73.18601	35.12146	37.83941
7060	12.50509	13.25966	13.98044	37.97234	35.56399	47.36113	16.85036	11.90341	12.34253	31.64991	39.60185	35.62315	12.82454	12.26992	10.05060	35.59637	36.18633	38.59246
7220	9.48248	11.22363	8.47724	58.99650	48.08341	26.11121	12.53250	11.10918	9.32709	35.49817	23.81719	18.17780	11.03766	9.15709	9.41479	43.56770	50.91387	44.25004
7380	10.75133	7.39559	11.20403	37.22226	32.28755	38.27187	15.87930	15.47488	11.40582	31.38410	31.05745	40.85075	11.58802	14.58095	9.17058	43.76245	49.68907	26.75301
7550	7.72538	7.70085	5.51586	31.15733	33.61818	37.23284	14.72930	14.04863	13.62210	42.33966	27.33801	28.84641	8.06378	11.26714	13.58567	47.24949	38.96181	39.69378
7710	14.46613	13.48755	14.27901	63.79840	40.73328	27.47181	15.68041	11.50577	11.21337	18.31303	29.33514	21.39080	9.97989	13.75688	9.89407	42.94737	28.30904	27.14630
7880	7.39085	4.99705	8.98189	25.96683	20.13878	28.96834	14.01181	11.34061	9.88145	30.23087	35.33819	24.88758	12.28801	11.27627	10.68511	36.93883	27.45352	23.97795
8040	6.81777	6.75385	5.89786	23.44261	24.50150	13.73981	13.62636	10.98989	11.60218	23.20857	15.11275	28.01934	4.73476	7.18642	9.28292	37.54574	26.83488	26.00200
8210	8.08232	5.31494	7.60264	13.57622	14.97732	10.93296	12.42640	8.95176	6.54446	27.07464	32.39425	8.91036	8.98802	9.90702	7.94624	21.94051	31.97157	19.85507	23.49	6.1	0.00	7.22	0.01277	0.01291	0.01683	0.00776	0.00578	0.00634	0.00469	0.01268	0.01691	0.00673	0.00683	0.00893	0.01493	0.01099	0.01200	0.00217	0.00615	0.00865
8370	8.67863	8.21378	9.25135	23.88771	32.35355	19.29922	12.32653	13.90877	6.67056	31.65243	31.31913	31.13362	8.64395	8.03335	8.64344	32.72888	49.18453	40.89598
8530	7.11322	11.09174	13.57116	38.43368	40.23601	38.20966	13.33957	10.34515	8.28671	37.11999	30.98041	29.07061	8.29131	9.28160	7.49132	22.17730	31.80221	28.90147
8700	9.50769	6.58617	7.38999	13.03995	30.81243	20.53704	15.35992	12.61567	12.10092	32.11794	21.18978	16.08048	8.22315	6.83627	8.40863	23.12149	8.57632	8.58100
8860	5.97801	6.51680	5.68065	14.45261	16.22579	27.07328	13.30278	10.19160	10.02613	22.57796	11.21912	29.85851	7.31385	8.95079	6.42679	25.37717	24.22486	22.36024
9030	8.27784	8.39848	9.62372	17.82493	19.03862	34.20134	14.76059	11.46110	11.50787	42.88498	32.26620	43.64271	11.09890	9.93531	8.81314	65.56830	23.26045	30.79238
9190	10.44922	11.01806	9.08799	18.50832	46.53409	19.44487	13.48952	11.40727	8.61898	20.75215	16.80422	19.06574	8.00913	7.30078	8.54002	37.25481	39.58101	39.51270
9350	5.57907	6.96643	8.08744	27.56343	17.64562	14.38284	11.64136	11.25735	8.18467	21.88924	10.28284	15.65276	7.66339	7.31523	3.46164	19.76234	21.35759	10.46977
9520	8.49318	5.28916	7.27498	14.71779	10.26376	9.69387	13.51340	9.37737	9.44939	44.46448	45.51326	52.72607	9.69254	9.10033	9.12912	48.83018	17.35895	13.39507
9680	9.84493	8.44930	10.91637	20.92695	30.00633	27.52169	17.08342	14.83773	11.70639	19.82551	22.71562	24.57648	10.64509	12.00028	9.15341	30.00879	45.01883	21.97623
9840	10.88299	11.02838	9.77842	27.15799	27.13183	24.81624	13.84746	15.48649	10.62109	36.94098	27.47627	51.09212	10.21297	10.79713	11.37279	26.74179	37.42398	20.41090	23.49	6.2	0.00	7.17	0.01277	0.01291	0.01683	0.00776	0.00578	0.00633	0.00469	0.01268	0.01691	0.00673	0.00683	0.00893	0.01493	0.01100	0.01200	0.00217	0.00615	0.00865
10010	8.14548	9.60690	7.27383	11.58972	10.17418	9.76712	16.92889	11.04200	4.61799	10.15910	11.04452	9.50875	7.10697	6.19227	4.71491	15.03207	7.35810	14.19918
10170	5.43950	2.75220	4.98822	12.88854	13.87128	13.59345	7.03656	4.99991	2.64319	14.06873	11.42681	12.99192	5.55937	6.46751	3.77821	19.92839	15.90726	18.78083
10340	4.71221	5.68441	3.85707	25.11971	26.78235	28.47632	6.99100	7.32829	9.95516	25.54793	10.43852	22.94284	5.81307	9.33896	10.36532	31.57387	35.38569	18.90717
10500	8.90386	7.83810	6.49028	11.72892	19.08709	22.66643	8.03443	6.36728	5.41241	12.18356	21.16470	18.41398	7.18781	8.56197	10.19141	13.75366	18.83499	13.56329
10670	7.53758	5.95450	3.41540	26.75809	14.95132	7.83884	12.14905	11.57664	9.62896	21.78467	9.89324	18.01092	8.38926	9.63603	7.48368	21.07578	24.16779	49.88004
10830	6.67047	9.09729	6.46314	35.59945	23.04168	41.78828	10.04739	8.18754	6.32493	21.20423	18.17886	18.88569	8.12608	4.48021	7.11376	16.29506	20.61140	18.64672
11000	9.05254	12.80934	11.65910	14.58334	26.76305	25.76100	12.99600	13.28421	11.40202	42.89438	24.60355	21.18008	13.13144	9.64891	8.85895	42.21622	22.39714	37.55570
11160	7.17530	7.40805	7.15716	35.44984	24.76751	23.41176	16.83779	8.19260	6.51600	26.39202	28.70702	42.17817	10.41472	10.99739	8.66179	39.82067	56.47169	42.97300
11330	12.88373	11.72115	13.03043	57.15163	31.47046	29.68152	18.54672	15.13647	13.11528	60.68269	49.45617	45.63462	11.52092	11.65396	10.48432	49.24521	36.62964	30.32848
11490	12.94424	9.87346	8.65310	22.62290	32.53065	35.52980	17.06390	14.29112	14.93544	34.24730	36.21856	24.97368	12.41013	12.80915	13.32607	104.15364	52.60494	46.66099	23.49	6.1	0.00	7.20	0.01277	0.01291	0.01683	0.00775	0.00578	0.00633	0.00469	0.01268	0.01691	0.00673	0.00683	0.00893	0.01493	0.01100	0.01200	0.00217	0.00615	0.00865
11660	13.39559	8.47305	10.91122	54.84300	48.38725	50.40996	15.71367	15.50939	12.40129	48.07236	22.01593	17.42759	13.75905	12.15313	10.22708	47.85946	37.96282	36.35183
11820	7.29628	5.43915	10.17069	38.89265	42.22803	33.29025	17.31017	14.59173	14.65731	26.65376	36.53122	36.15301	9.46550	11.02139	14.15375	40.15314	25.21453	17.07506
11980	7.07377	9.36699	7.97558	25.13158	30.59372	18.07064	13.67700	13.29895	12.91693	25.26364	24.35559	19.15918	14.07984	11.52688	13.25766	26.79985	34.78061	18.61511
12150	12.15852	10.56213	13.49392	22.14614	18.58956	13.37857	13.54637	10.24424	9.21701	42.69174	30.07956	42.19333	5.87145	9.21352	10.13192	17.96630	28.06673	18.11157
12310	10.82883	10.36776	11.47321	28.29090	19.61140	22.62714	12.64164	10.28719	10.67864	10.08728	22.28439	20.43084	9.49756	9.14802	9.09059	33.50177	43.10071	41.35021
12470	9.91095	8.60105	7.37060	27.55224	25.47684	24.68473	15.54554	11.03734	5.16352	47.87686	25.33028	27.82978	7.22902	6.50072	6.54420	26.55856	24.47089	25.87255
12640	4.07702	9.57200	10.82409	22.10851	13.43259	13.72236	15.36521	11.95883	10.64673	31.17907	23.26209	26.42224	7.57925	7.88862	7.82549	25.99753	21.61592	17.37662
12800	11.93601	9.33237	9.79497	20.87284	12.09643	18.98826	15.88120	10.37384	8.03611	20.57072	26.24914	27.53835	12.55961	11.29426	10.17752	37.23125	20.04020	32.36492
12970	12.74410	7.56569	10.71930	23.32229	25.51579	20.78659	17.33484	15.54196	12.12796	17.02402	25.28329	32.51915	9.34215	9.48012	6.83822	17.88845	15.35587	20.49534
13130	7.26862	7.55090	6.89074	31.13142	66.22905	31.46820	12.39673	7.97546	6.00689	37.77491	12.40067	19.25191	10.34209	8.39841	9.22521	32.26324	39.27929	20.99581	23.49	6.2	0.00	7.26	0.01277	0.01291	0.01683	0.00776	0.00578	0.00634	0.00469	0.01268	0.01691	0.00673	0.00683	0.00893	0.01493	0.01100	0.01200	0.00217	0.00615	0.00865
13290	7.83620	7.44543	9.97749	16.94165	35.82375	27.94810	14.24090	16.26316	12.10483	28.22630	30.12542	30.86204	12.97471	8.73782	6.46492	47.32621	36.66319	27.78010
13460	9.92880	6.63983	10.07426	19.91455	22.66015	17.98576	15.17737	13.27695	12.73373	15.37516	34.05859	36.92746	7.28413	9.63191	11.59837	18.31344	36.12404	32.50224
13620	9.55036	6.72902	6.56437	37.55720	24.90614	25.03432	15.30670	12.17044	10.77200	40.27970	24.17220	12.59727	7.63788	11.41383	8.11068	18.72208	16.12629	18.88874
13790	5.93731	5.89867	5.72874	18.52321	27.97578	12.42917	9.05575	14.32349	12.19825	30.78261	19.93384	30.77224	9.96806	13.23858	11.22522	54.31313	33.43155	40.56449
13950	11.92207	7.21692	6.40643	28.06013	31.98262	35.38500	13.90579	14.04605	11.16781	62.10654	41.85755	31.65439	11.88717	16.82292	14.78346	24.44215	32.65161	44.07548
14120	11.56360	9.66945	10.21975	77.85611	35.63611	48.36728	10.88510	11.44509	11.49879	45.90786	58.56610	48.39574	9.81141	11.45385	13.60433	33.16161	21.42845	29.13497
14280	6.54570	8.50728	11.33024	27.62490	38.92197	36.35352	17.17081	13.13305	11.26432	27.80534	34.59681	25.05635	12.42802	10.90862	10.20182	23.58477	41.00711	38.67359
14450	6.39367	5.82874	9.93690	19.19633	19.26042	18.22582	12.52492	13.17757	11.13702	25.15470	14.22806	20.72648	9.44157	9.69568	10.18267	26.77614	18.41232	28.24049
14610	7.04941	8.74050	10.46335	19.65928	23.13433	23.25260	12.20051	11.01416	12.00050	22.31255	29.33299	29.93341	14.90194	14.28004	9.13887	54.73240	33.29708	38.31986
14780	11.28789	8.77410	11.66801	39.19120	49.83054	47.88441	19.10808	9.78437	11.60953	33.20477	42.55698	26.46809	13.93581	11.24084	12.01326	54.62150	33.16676	32.26779	23.56	6.1	0.00	7.22	0.01277	0.01291	0.01683	0.00776	0.00578	0.00634	0.00469	0.01268	0.01691	0.00673	0.00683	0.00892	0.01493	0.01100	0.01200	0.00217	0.00615	0.00865
14940	10.54593	6.96233	7.12982	38.55859	31.16167	32.75119	10.14583	8.33850	12.01347	20.17924	29.86620	42.45997	7.54035	9.50403	9.32607	39.15170	39.39732	17.55541
15100	9.63431	7.47954	4.92890	11.99597	14.73161	12.62641	7.77671	12.37540	7.99485	19.66785	36.47758	22.91475	3.07725	4.13871	4.01823	21.67720	38.09463	17.46028
15270	3.86836	5.59600	5.79454	10.60646	14.19659	11.71085	11.99036	10.76430	10.60260	15.79259	14.28475	35.18160	8.81379	11.14639	9.82718	31.17988	35.10219	41.79285
15430	8.05495	6.91315	7.98329	26.40377	39.41025	27.42011	11.33934	7.25151	8.86636	33.77270	33.72914	26.65741	12.32457	9.61830	11.25265	21.82826	16.77388	15.56933
15600	8.23202	9.49111	9.14463	17.98780	35.78497	21.03419	11.62454	8.45833	8.32987	33.42498	24.83469	30.35634	3.88724	5.34885	6.09290	40.24044	19.47868	15.95844
15760	7.62826	8.40621	7.82592	11.61625	11.44518	19.55066	13.09999	12.23801	10.39556	14.30967	29.26317	18.88622	10.73816	9.22574	10.33107	25.41592	67.66268	55.10813
15920	8.17172	7.04523	6.75787	66.10011	51.00348	56.78052	8.39286	9.80408	11.51747	59.96225	75.04524	72.77302	8.72553	9.11638	12.95372	37.69267	65.42220	43.29185
16090	8.62275	10.84271	9.53990	28.28522	25.71142	39.79500	13.67970	11.77389	9.36488	29.99436	17.11368	31.84036	8.73652	12.49985	10.72215	39.98396	16.64183	15.84781
16250	11.20621	12.05398	12.63216	30.13166	28.53440	16.34964	14.38519	12.28914	10.89393	23.13109	33.57051	26.42113	10.19814	12.07540	11.41590	27.21680	24.00335	26.20986
16410	9.10377	9.86925	7.59921	20.76784	24.79434	8.40939	13.77552	12.11667	10.45421	20.74058	9.51033	16.15770	10.30699	6.96843	6.49006	60.05233	23.44166	30.62237	23.49	5.9	0.00	7.22	0.01277	0.01291	0.01682	0.00776	0.00578	0.00634	0.00469	0.01268	0.01691	0.00674	0.00684	0.00893	0.01493	0.01099	0.01200	0.00217	0.00615	0.00865
16580	8.29484	10.83179	10.03548	57.39398	57.91895	34.22137	13.68571	14.00582	15.93622	41.27434	52.31991	44.71304	12.81797	13.46772	8.61141	19.60985	16.81513	9.83437
16740	11.44828	9.35106	5.74732	20.78963	22.04239	15.25617	10.99513	11.66002	11.67928	13.85205	15.10741	22.04811	10.27933	7.75561	7.59109	13.41494	13.38228	22.08925
16900	6.70209	4.89799	6.73231	22.90535	20.13458	9.36838	9.08987	8.20230	8.24935	21.15154	9.31858	13.61018	8.19997	10.14742	8.60291	17.45614	8.08633	22.82391
17070	5.39661	6.13680	4.80475	29.10248	19.37274	15.36634	11.97081	10.86474	6.37324	24.05281	22.71986	14.97312	6.43502	8.43459	6.88860	18.14912	10.22836	9.09656
17230	8.46393	11.14941	5.68650	17.39950	27.67090	16.28531	12.23369	6.60691	7.56158	19.70429	33.72196	27.61382	12.26879	9.73446	10.01791	25.79751	30.59124	30.95568
17400	7.75441	11.37966	9.13260	25.40547	40.15619	47.22817	13.40469	11.27434	8.18511	21.58208	13.82937	21.97919	7.18116	6.38374	7.24696	13.53429	17.99927	10.01163
17560	5.70123	5.57286	5.50955	10.81453	12.91549	12.36326	11.66754	9.64424	4.79657	6.17541	6.43931	3.57429	2.75757	4.50132	5.89261	21.72083	17.51565	16.55301
17730	4.22599	4.12807	3.30593	12.27563	14.31299	19.14461	12.39388	9.86446	8.35184	8.29737	4.66062	13.32165	8.93406	8.69649	7.23041	12.26288	15.05111	6.36586
17890	4.65677	6.85558	7.20565	15.41029	13.78527	17.18775	11.31360	11.23203	10.99136	45.20498	23.40867	7.46506	7.41019	6.83978	9.31698	26.48194	34.06800	22.85703
18050	10.37798	9.66203	8.22753	24.67972	32.71393	27.86883	12.93170	11.35044	8.23034	16.67008	30.31268	21.24239	6.12628	11.22328	11.29413	47.12124	41.12833	46.04269	23.49	6.3	0.00	7.21	0.01277	0.01291	0.01682	0.00776	0.00578	0.00633	0.00469	0.01268	0.01691	0.00674	0.00684	0.00893	0.01493	0.01100	0.01200	0.00217	0.00615	0.00865
18220	10.27743	8.86846	9.22503	45.96121	32.07983	36.79316	10.79066	8.80674	10.46316	16.11143	37.76250	31.96680	8.56378	8.70671	8.01403	21.48393	31.40921	20.13402
18380	9.93856	10.16813	7.23244	29.57528	28.95928	29.59901	14.07299	18.19842	14.77306	30.15765	28.85238	34.72082	9.58051	11.42125	10.57803	25.14021	20.69908	27.45220
18540	11.17468	8.22693	11.69428	28.53157	18.77116	23.96043	12.12843	12.79304	13.63986	15.92037	19.31785	14.84266	7.11171	4.66828	8.42598	12.23562	17.25042	9.85213
18710	6.81067	9.60520	9.19011	10.66908	14.79969	19.45243	11.48851	10.53997	8.14714	8.38831	11.83192	10.61890	5.56871	6.53103	5.23135	14.88645	26.72926	20.42560
18870	7.42640	6.47958	5.37246	28.49732	19.32717	29.28041	14.75479	14.74298	12.25449	32.34462	28.02905	48.94612	12.17328	10.70965	12.32232	58.04923	28.99084	20.41022
19040	11.60808	9.72288	7.12562	34.23915	28.20789	28.36956	12.78402	15.76414	9.43895	23.28996	23.15399	14.75630	10.08894	11.90022	11.78944	40.50928	50.09025	42.14413
19200	7.39858	8.08318	9.96915	37.24248	44.69650	26.72435	15.20973	10.92632	5.13230	16.44030	30.01344	21.31929	9.99131	8.64669	8.79180	32.70930	36.45570	48.94621
19360	9.61758	10.42104	9.23719	36.80979	45.14283	37.63419	16.54000	11.95136	8.45835	34.59385	29.17395	34.94991	8.82471	10.45181	12.04609	55.45909	43.24007	71.67961
19530	9.47306	9.10453	7.90915	77.02729	24.42103	12.53816	16.41527	12.57395	12.05208	37.69335	28.50784	22.59552	11.30120	9.51981	11.41006	48.52282	35.02652	70.72333
19690	12.14571	11.33402	12.28441	64.16929	47.13481	44.04240	16.99519	17.47994	11.44144	63.04037	34.27274	58.18832	17.83352	15.13946	9.67456	31.13279	42.86739	64.70793	23.49	6.2	0.00	7.25	0.01277	0.01291	0.01682	0.00776	0.00578	0.00633	0.00469	0.01268	0.01691	0.00673	0.00683	0.00893	0.01493	0.01099	0.01200	0.00217	0.00615	0.00865
19860	12.77697	15.67507	13.44628	56.25695	40.49893	48.72700	18.20658	16.27079	15.74505	73.93312	44.60230	31.70332	14.74692	12.24112	11.10917	47.64603	40.63861	52.03445
20020	13.84982	13.44370	11.28888	75.85846	61.37987	51.19212	17.12753	12.79072	13.89180	34.28365	29.89672	32.90113	12.47672	17.46845	15.53242	75.67963	85.60567	46.46450
20180	16.13110	14.48005	12.60476	63.32520	73.78412	41.21099	16.10895	16.50664	14.54515	69.58541	76.86003	54.48750	11.39946	13.52930	13.15211	88.06337	45.87967	46.85641
20350	11.39981	14.43835	9.50922	58.95517	62.81231	55.08513	16.13484	15.99732	17.98006	37.94778	38.71849	47.49372	13.61590	14.31722	14.06924	57.19851	48.13707	66.63746
20510	13.29111	12.35140	11.38000	57.38880	68.67157	33.01083	19.91392	14.33111	15.24775	46.59451	27.01456	60.92703	10.47207	13.07690	16.07994	50.84870	38.35831	36.86220
20680	11.56131	13.55626	13.32742	33.52424	34.97777	56.91253	18.73194	14.24309	12.03795	52.15902	56.76373	30.53304	7.54345	9.67549	7.38468	42.48783	21.57139	28.21064
20840	11.13572	12.88470	10.07846	21.65084	45.87747	53.92957	15.93828	20.43495	15.89414	40.93970	40.60272	41.85270	12.53642	10.87999	13.42991	52.58158	47.45174	38.57081
21000	11.37320	10.53916	9.26157	23.87131	26.56069	28.94064	14.61164	15.27706	13.60146	18.33875	26.76624	18.95693	10.36281	10.13216	12.18971	36.71127	53.16169	29.45031
21170	10.96769	12.07442	12.58726	20.59601	15.71946	23.39476	13.15971	9.99980	10.39439	37.83600	25.69412	43.62001	10.42107	10.88452	10.12809	22.06161	26.96182	28.05445
21330	10.07449	9.86223	9.31488	24.59596	43.29686	22.46615	14.66055	13.53890	11.30874	22.53337	19.40743	19.02438	9.73872	7.57998	4.44809	23.63487	30.55537	27.08338	23.56	6.1	0.00	7.24	0.01277	0.01291	0.01682	0.00776	0.00578	0.00633	0.00469	0.01268	0.01691	0.00673	0.00683	0.00893	0.01493	0.01099	0.01200	0.00217	0.00615	0.00865
21500	7.04280	7.20934	10.72389	20.43910	17.03989	16.93340	16.16485	12.93511	11.32914	29.46429	25.86350	24.78937	12.35142	12.69801	9.56531	23.28664	22.23570	23.70276
21660	11.30666	10.25981	8.82863	41.81114	24.12605	24.61379	15.55387	14.27403	9.59607	19.66591	34.42382	44.95543	13.08922	9.78378	11.23659	33.36437	48.46992	26.94545
21830	8.28573	10.48109	9.73156	35.34786	36.83835	33.85677	14.15233	11.93047	10.22335	25.31824	25.85047	31.23170	11.60382	10.08870	10.19540	19.15793	22.47509	19.90495
21990	7.45076	6.68821	10.29915	32.52050	26.76666	33.26121	15.34398	14.25040	10.55653	19.79011	12.61061	23.18830	10.61962	8.68733	8.07122	57.41309	56.75118	35.15053
22150	7.00168	7.89890	7.47430	54.71285	48.35235	35.28302	14.82298	12.48850	10.73081	20.95774	23.21397	13.59392	13.53538	11.66968	14.15628	21.20100	15.28360	27.33099
22320	11.08862	14.13920	12.57118	26.85332	22.63058	19.41640	14.64275	10.91866	10.14454	36.60014	28.40353	45.81642	9.00122	10.11695	6.50788	26.10595	44.75560	55.92681
22480	10.14493	13.16868	9.26666	30.40041	25.46784	22.66734	19.23525	14.39268	12.05248	14.66946	11.21883	17.58534	14.13419	7.80766	4.92958	15.36407	22.51388	16.04243
22640	8.59977	8.21063	8.46693	18.29605	11.84003	22.95648	9.50707	11.03966	11.85887	15.59955	16.38080	22.34102	7.92203	6.63889	9.11307	25.22713	39.63934	25.06050
22810	3.72305	4.33300	4.91343	33.88700	12.51210	13.61675	9.42377	4.71924	4.24533	24.11635	20.33932	30.87555	9.21599	7.17705	6.71708	27.44236	18.34429	26.59554
22970	9.39113	6.99518	7.84159	27.91406	16.46080	19.51024	13.26204	11.09205	9.04826	30.72736	30.18166	29.42864	10.42197	9.47115	9.74606	28.76001	40.02909	26.33743	23.56	6.2	0.00	7.21	0.01277	0.01291	0.01682	0.00775	0.00578	0.00633	0.00469	0.01268	0.01691	0.00673	0.00683	0.00893	0.01493	0.01099	0.01200	0.00217	0.00615	0.00865
23140	8.32829	6.90739	8.18504	22.48628	39.21139	23.66925	12.10192	11.89828	8.60764	41.52084	32.61251	18.53372	9.02467	8.04231	7.38521	16.81223	14.85599	30.73986
23300	4.02315	5.79366	9.57172	21.55721	32.26674	30.94214	13.96604	8.73680	9.66342	12.33011	10.07841	16.82526	6.12250	8.43176	5.49469	34.66943	20.72062	24.87316
23460	7.52263	9.94181	7.26243	30.06029	27.25807	29.36565	10.75185	8.53656	9.73051	24.25330	15.39632	17.16378	6.24042	10.45928	6.36499	24.22542	22.62788	9.28664
23630	7.46026	7.58289	8.46605	25.08592	28.51371	18.82009	13.05947	10.18093	9.09139	26.66481	30.49856	23.78231	11.40634	6.27089	9.20093	48.10938	40.71555	31.75616
23790	6.23022	7.35687	9.73354	28.78180	22.23042	18.88799	14.06728	10.12791	9.80369	36.05720	20.78039	22.28256	11.04306	10.25807	5.74240	27.74456	19.96469	19.04090
23960	5.27283	6.84774	10.02261	35.26319	32.33452	33.01015	17.27868	15.28762	14.52389	26.94869	27.55449	25.31720	12.95482	13.15404	8.82023	35.43362	48.81264	40.36087
24120	11.19216	5.79604	6.79420	27.84940	21.50214	70.05329	8.62607	10.48827	8.54131	28.29277	32.21981	52.76500	7.89570	9.34115	7.80645	63.08593	32.31773	24.85813
24290	7.63016	10.40284	7.61039	39.65358	30.12099	21.75393	17.98770	14.22220	11.58160	45.32979	17.31239	42.41848	14.76796	14.70735	11.96482	48.31394	29.42147	19.94658
24450	8.29764	7.52240	9.04488	24.99873	36.10835	31.38169	11.13821	10.36341	7.29262	34.20203	24.24617	16.72908	7.72966	5.64995	8.94520	24.50640	29.37146	37.12559
24620	6.44646	7.28113	6.36476	11.09360	12.48364	20.09482	10.36491	10.55409	9.32614	11.68002	23.19708	25.21541	10.07052	11.09323	8.75273	25.58479	31.60114	27.34557	23.49	6.1	0.00	7.24	0.01277	0.01291	0.01682	0.00775	0.00578	0.00633	0.00469	0.01268	0.01691	0.00673	0.00683	0.00893	0.01493	0.01099	0.01200	0.00217	0.00615	0.00865
24780	4.88834	7.00341	3.61842	37.80555	38.85154	25.77949	13.24126	13.22402	8.15523	51.96134	40.53655	31.84233	7.35621	6.60961	9.93001	68.85059	27.48687	35.27405
24940	7.75968	7.07985	6.16687	24.53328	22.32060	16.37887	14.21840	12.60405	10.55357	25.65583	27.02632	42.22240	7.20220	8.55700	8.01663	39.19446	26.73095	25.67422
25110	8.54095	6.98717	8.65350	14.32465	24.48808	13.88117	14.67115	7.52028	8.75042	28.19573	19.54407	44.31847	11.43305	11.90311	13.84106	41.02221	40.26799	50.32677
25270	9.69446	10.70970	10.15906	57.10124	25.07560	24.93077	15.95278	12.85222	12.42073	22.06515	19.14544	22.04750	5.90941	8.71657	9.90141	32.36353	38.19374	34.12483
25440	10.57997	5.93551	4.75376	10.85997	21.47345	17.75079	14.54778	15.55260	12.89250	21.65210	23.11573	33.19329	11.98629	7.83213	4.90864	25.93446	15.27285	21.40445
25600	8.02681	6.10941	5.17255	32.24061	28.27706	27.48506	9.83357	6.95631	4.69179	17.88951	19.69671	22.28170	8.34058	8.46238	7.42091	24.16166	18.97308	30.91012
25770	8.16916	9.07289	9.51793	40.78484	14.89979	26.80669	9.03624	8.50429	8.14128	26.15232	30.29519	18.95179	8.82650	8.51708	6.34101	25.22310	21.40613	7.71482
25930	6.64775	5.27378	4.30789	11.92674	13.20892	10.85697	10.59383	10.81421	11.57394	17.62327	19.20332	21.29239	4.74488	5.49937	5.71274	16.54852	25.45879	40.57571
26100	4.56204	7.24493	3.52850	24.48517	35.73295	21.03799	10.39659	7.51455	6.80704	26.49352	14.19747	26.16739	5.93642	4.91736	4.77419	40.45831	43.41068	23.85368
26260	6.95295	5.46812	5.35485	20.31572	19.98862	20.72450	11.17368	9.18733	6.85411	11.71361	24.77132	17.68317	4.89138	7.45490	8.41089	22.00033	24.60852	44.66690	23.56	6.1	0.00	7.17	0.01277	0.01291	0.01682	0.00775	0.00578	0.00633	0.00469	0.01268	0.01691	0.00673	0.00683	0.00893	0.01493	0.01099	0.01200	0.00217	0.00615	0.00865
26430	12.57306	7.57363	8.12175	27.19444	44.52407	33.70851	10.11664	12.73985	12.81474	39.22703	26.92921	40.29089	8.42561	10.00729	11.90114	28.54149	27.45186	30.72828
26590	9.92458	10.48721	9.19713	31.07316	27.19879	37.23883	13.24634	13.02452	14.56742	25.00494	26.33884	28.07946	9.21060	8.82920	9.30887	77.23898	97.44102	25.01312
26760	9.57999	8.23526	8.96498	22.30004	24.89288	25.75243	13.22437	11.21273	10.05401	36.39047	18.84861	27.60351	13.29075	12.32081	12.27281	73.94716	62.73516	46.73366
26920	11.18504	9.51938	8.16786	41.05283	25.69086	20.56966	15.26400	14.49450	11.90525	33.56231	24.84801	19.98945	9.76716	8.10844	7.59121	36.74031	27.89590	32.92165
27080	9.85243	8.77118	7.15621	35.08310	36.14971	37.95243	10.96053	8.68866	8.60370	37.37755	21.15695	31.71487	7.89784	6.50654	9.62037	38.45134	30.38463	22.28677
27250	10.33065	6.42604	6.29280	39.52701	33.61843	24.02317	10.81955	9.37474	5.17144	14.57226	14.45594	12.21270	8.49027	7.24069	6.94215	18.53381	23.32787	12.99547
27410	5.42529	6.75530	2.79507	9.81212	11.64941	9.64616	9.55484	11.58412	8.75372	8.86249	13.70127	15.12209	9.68498	8.51575	11.55193	15.67260	10.24280	8.13265
27580	10.73480	6.76955	5.91512	11.16639	11.40917	21.41329	9.78373	6.74393	6.75634	24.22339	24.58944	22.91993	7.31242	6.26384	5.66845	14.95688	15.82923	20.01844
27740	10.32313	7.40290	7.65663	28.95025	15.68834	15.26090	11.60075	13.44921	8.10945	17.61142	30.13425	24.88794	7.97742	8.02755	8.02130	20.04754	43.30672	31.61975
27910	7.81760	4.45210	4.69996	20.82074	17.24314	24.72441	10.72891	10.56751	6.54021	22.19337	18.06803	9.37607	9.09625	7.94423	6.58840	11.13929	8.64758	15.83577	23.56	6.1	0.00	7.26	0.01277	0.01291	0.01682	0.00775	0.00578	0.00633	0.00469	0.01268	0.01691	0.00673	0.00683	0.00893	0.01493	0.01099	0.01200	0.00217	0.00615	0.00865
28070	6.01881	5.29881	6.76390	14.18337	16.89154	10.93825	8.31413	7.03097	3.56957	14.52104	17.01140	19.39162	7.29780	8.41097	6.45582	15.80885	34.39748	27.76728
28240	6.72837	7.96560	9.33646	35.89210	33.58610	17.79904	9.40714	12.86216	10.50314	17.21713	18.66040	28.61311	10.37344	11.08576	11.47262	52.24883	22.88089	33.52632
28400	9.84476	7.86849	7.58226	26.15207	23.97487	17.63546	15.33159	11.98094	6.82965	26.68212	33.94809	12.34021	10.96430	6.54458	8.22602	22.06090	41.80517	34.19902
28570	9.54440	8.79486	6.82701	27.02203	34.51061	36.68167	9.01244	8.64614	7.99060	21.14568	9.54275	13.79017	10.08070	4.42029	7.18996	12.13734	17.02542	15.49486
28730	9.39654	5.83609	5.39626	24.28330	33.19455	16.77874	8.48686	10.38013	6.27213	26.95845	40.38357	37.64638	8.29888	10.09561	11.21819	24.25498	17.74253	29.60033
28890	10.61460	9.92221	7.52252	24.15449	15.40452	16.44052	10.58237	10.98026	5.81660	26.79187	25.21851	17.04244	8.88818	5.99864	5.51845	28.76231	18.49808	16.33656
29060	5.13134	4.81432	3.46455	15.58437	25.62244	20.86788	8.39933	7.56077	11.68900	17.80637	23.38526	15.37312	8.86920	8.69086	4.48549	32.76787	24.09647	16.32993
29220	4.87324	8.61723	6.15873	35.61837	31.04798	33.96229	12.28027	11.10692	11.46180	29.94669	14.23243	19.83074	7.29491	9.67437	8.68295	27.11317	29.05869	15.45238
29390	8.14719	8.38986	5.06143	12.35467	11.40286	21.47673	10.05369	8.98848	8.17362	13.32106	11.18478	9.30950	4.84255	6.21283	6.20479	17.15940	27.44228	23.46364
29550	5.01038	6.38760	5.39950	30.36379	29.89266	41.27865	11.86309	8.91399	7.24239	28.46093	34.61054	27.82401	9.08501	10.74969	12.29746	32.50750	38.10935	32.24087	23.49	6.1	0.00	7.23	0.01277	0.01291	0.01682	0.00775	0.00578	0.00633	0.00469	0.01268	0.01691	0.00673	0.00683	0.00893	0.01493	0.01099	0.01200	0.00217	0.00615	0.00865
29720	7.31760	6.72678	8.74119	15.33424	20.87857	25.56885	16.33512	12.59576	8.89351	26.47376	25.18644	32.91819	10.11369	7.53628	8.71215	36.08475	32.53728	23.13859
29880	6.12433	6.27360	6.87507	31.13546	26.61065	18.57605	13.27153	11.07351	11.28287	31.30203	17.67840	20.80888	11.00546	8.70226	7.89746	43.16941	22.67344	26.11584
30050	8.65634	6.96506	7.64552	29.05997	40.66266	31.07458	12.84073	15.36655	11.89788	28.93263	34.08067	33.66275	7.91841	10.90246	9.91013	55.32109	16.82134	18.52392
30210	11.13999	9.54918	9.45516	30.61552	20.06963	21.31049	11.41232	15.57127	9.60905	19.55546	15.95689	19.99892	12.98809	11.26134	10.49781	39.62823	19.98217	37.35177
30380	14.28072	8.16763	8.64677	43.04722	41.60013	20.72420	12.47089	11.39408	10.53547	46.81930	51.00989	50.05156	10.43578	7.99432	7.41749	51.88768	45.36519	46.43773
30540	5.75675	8.48889	8.46492	33.12916	28.03961	27.90194	17.25025	15.35565	12.08224	30.76849	29.46714	38.28762	10.18818	8.95526	11.84645	37.77617	36.61912	31.24216
30710	10.23456	9.01440	9.87913	29.20854	29.65024	24.60275	14.94360	16.34597	12.81140	32.47852	31.11424	40.43993	12.69289	11.85107	10.32414	25.43021	23.92239	32.83137
30870	10.30315	10.12902	8.58581	20.82532	24.64350	27.91378	10.83750	9.73343	7.70404	24.31015	22.92815	6.67679	6.56146	4.41614	3.41775	32.25558	27.63672	18.17938
31030	5.32368	9.63366	5.10405	31.78877	43.64749	51.91269	12.50322	14.15430	11.62946	44.45145	40.99979	52.94834	10.53321	12.95551	11.35768	43.73225	19.31372	27.98050
31200	12.48914	12.27243	8.68305	34.58288	24.67330	20.92154	17.60477	10.89253	9.91509	14.88036	13.38539	8.96655	9.83460	9.66176	8.15851	19.55837	21.38747	16.79704	23.56	6.0	0.00	7.27	0.01277	0.01291	0.01682	0.00775	0.00578	0.00633	0.00469	0.01268	0.01691	0.00673	0.00683	0.00893	0.01493	0.01099	0.01200	0.00217	0.00615	0.00865
31360	7.76663	5.92941	5.24662	22.80784	17.93925	7.79756	12.17138	9.15728	9.63113	11.14678	9.01738	13.27995	7.06756	6.99468	7.45649	14.59475	15.37614	25.19308
31530	9.51173	9.70357	9.46299	10.15962	17.94739	11.93572	13.18562	10.07534	8.97319	24.25171	16.34895	17.98195	7.44519	8.33201	10.48069	20.08351	19.90108	39.43633
31690	10.54481	10.57936	9.39070	21.63622	26.27451	29.42983	15.55201	13.75571	13.33645	23.19487	21.13890	8.52554	7.75244	12.10055	7.92155	23.86059	20.73851	24.39447
31860	7.89920	8.11905	5.74083	17.46240	18.75741	29.41559	14.37073	13.32056	10.45674	14.51496	15.61802	20.19772	10.84742	9.98796	8.05990	22.72577	22.84543	34.63571
32020	8.05291	7.24380	9.71704	30.51861	22.34076	31.16691	13.51277	9.96262	9.35589	28.12651	23.57971	20.95914	10.84820	9.22769	9.36714	21.52187	20.50138	27.58461
32190	10.80924	8.25037	8.21582	16.45536	17.62544	9.74417	10.28127	12.40469	15.20484	21.15739	17.74436	16.34727	9.31207	7.30390	9.29184	25.53854	14.29880	15.77893
32350	8.57598	6.73840	9.55759	11.43296	12.70123	16.03079	10.08846	5.37308	5.42023	18.34946	11.86339	15.24298	4.97328	3.67731	3.34900	40.72222	27.97850	14.87688
32510	4.99702	7.85190	8.29438	32.28306	41.02859	36.96953	11.40935	10.48283	9.87788	29.50265	27.15804	20.77848	8.41531	6.66586	10.96464	25.33538	32.85471	29.61111
32680	8.48160	6.48080	4.85140	47.68658	31.53169	27.12839	14.24908	10.90132	12.22452	37.34865	28.28222	13.56238	5.84768	11.89585	7.13004	27.42013	31.01480	40.54575
32840	8.66025	7.54795	7.00289	17.35623	18.52328	15.81258	13.16928	11.98884	7.65740	19.84388	18.43933	21.01652	9.62207	12.30961	12.39861	31.64902	35.96543	24.56270	23.56	6.1	0.00	7.22	0.01277	0.01291	0.01682	0.00775	0.00577	0.00633	0.00469	0.01268	0.01691	0.00673	0.00683	0.00893	0.01493	0.01099	0.01200	0.00217	0.00615	0.00865
33010	8.32184	7.21400	6.37211	12.74936	38.08024	20.24780	13.59568	9.89591	13.46404	34.86474	37.88721	16.35501	8.33282	11.70755	11.32055	49.87112	28.95631	22.41124
33170	12.64255	12.00375	11.00060	34.21194	36.00007	26.88586	15.70426	12.00281	13.13386	50.90840	40.23138	38.11868	11.95899	11.61720	13.98909	48.83454	56.50362	40.95061
33330	11.08193	6.59974	7.28837	27.62086	31.58388	29.97163	14.57225	8.94128	9.44813	31.58330	19.92889	18.20394	11.62451	12.03087	10.65940	29.36202	30.88068	23.46747
33500	9.55279	10.11170	8.28700	34.86382	35.65986	25.61679	14.54560	11.82449	9.50749	46.33846	31.57344	30.51365	6.48483	7.30782	8.99080	23.03132	30.04551	27.40586
33660	6.60450	5.24399	8.12008	32.45600	18.81212	13.95668	10.34105	10.39577	7.05400	13.21632	33.19337	35.77793	4.69095	7.44476	8.20946	18.80548	19.51324	64.98807
33830	6.46846	6.28865	6.70406	47.66082	31.98740	18.46915	12.82601	9.08252	6.48080	39.02632	40.67403	19.23519	11.29016	11.86929	9.68408	26.81731	23.02685	26.16880
33990	8.63946	9.76626	7.77661	29.82121	23.68477	32.40044	11.13095	10.48769	10.25707	23.09272	25.49907	33.79810	10.31842	8.87228	10.36817	43.27734	33.07246	29.10452
34150	7.95811	7.87726	6.90436	14.66976	23.00046	45.50522	12.73474	9.76939	6.78851	28.47025	33.18853	15.64610	9.44757	9.77780	10.81503	20.96984	13.17997	23.43339
34320	9.89894	9.79221	8.30372	25.87195	48.39216	30.49545	12.60166	12.05717	9.97710	43.82649	23.89186	14.09288	6.29868	6.61677	10.27519	21.31740	28.23031	27.41884
34480	8.78995	6.30331	4.09501	13.21334	44.18829	23.86160	11.14463	10.62011	6.68230	30.26197	17.90330	37.92363	9.26930	7.35342	9.00707	43.08357	46.09180	36.69051	23.56	6.0	0.00	7.31	0.01277	0.01291	0.01682	0.00776	0.00578	0.00633	0.00469	0.01268	0.01691	0.00673	0.00683	0.00892	0.01493	0.01099	0.01200	0.00217	0.00615	0.00865
34640	6.98099	7.71885	8.77453	21.58859	14.75122	19.60827	11.41447	7.64362	9.50618	24.12992	24.79508	16.98904	8.89730	11.54436	9.93450	27.07750	38.62214	28.92547
34810	7.60872	8.43952	8.00230	37.20222	49.80060	31.55247	14.39195	13.07418	9.55001	16.49615	41.90209	71.69700	11.67313	6.15125	8.91957	36.79711	60.15167	38.39707
34970	6.16803	6.66566	7.46242	20.38877	40.74754	43.21242	6.78709	8.85718	7.92816	17.23538	7.98861	17.17325	4.73275	7.77667	7.29867	27.64578	21.54612	16.80643
35130	7.74675	5.13587	5.58125	13.80465	39.52868	38.32668	15.24068	9.76293	10.71098	28.97217	66.46584	33.27703	12.26471	11.04302	10.99331	54.14510	35.63555	22.79868
35300	10.71115	11.08975	9.77350	41.63279	35.44752	23.77183	11.67137	9.79360	11.78948	50.72051	27.31739	54.32315	9.72201	11.53831	11.29079	42.12895	45.36382	39.33382
35460	13.31975	9.76024	9.96077	33.06283	17.82215	20.02292	14.16113	12.90779	8.01276	26.41163	17.63019	28.42699	7.06812	6.00479	7.41496	51.17619	53.09024	32.99198
35630	5.49761	6.43476	7.72046	24.24809	34.47983	44.83064	13.35520	11.57451	9.98287	32.94412	33.25955	45.25157	9.61186	9.73831	9.07554	27.45275	47.74297	28.18784
35790	7.61727	7.34658	8.05921	32.25244	29.07150	36.96470	15.07367	13.79086	14.40306	18.84214	26.96414	27.74636	10.77244	9.14536	10.08657	58.38651	26.94720	58.09929
35960	7.22999	5.46955	5.92034	56.80255	35.37903	40.85165	15.22654	12.24686	7.30307	27.43457	17.28827	22.51849	7.22684	8.57227	11.30130	35.15206	38.86630	22.94199
36120	7.58683	9.43029	10.42203	24.58378	29.14587	37.97863	12.11395	9.60037	7.40528	19.46191	24.57034	21.08367	7.55526	7.55737	7.80790	25.82844	17.57041	32.61922	23.56	6.2	0.00	7.29	0.01277	0.01291	0.01682	0.00775	0.00578	0.00633	0.00469	0.01268	0.01691	0.00673	0.00683	0.00892	0.01493	0.01099	0.01200	0.00217	0.00615	0.00865
36290	7.43834	9.26217	7.91156	21.94943	19.35044	27.80998	13.97142	8.79953	9.13699	10.46953	13.36029	18.73654	9.89137	10.17530	9.96691	10.89709	16.34117	14.84365
36450	8.18863	9.90902	8.50380	23.31261	40.66694	25.11617	14.62910	8.80187	8.41672	35.71422	24.08698	17.44215	8.90955	3.43292	5.01548	19.13447	16.24480	14.22864
36620	3.75460	6.64511	5.91792	26.10613	18.25688	16.49088	12.31189	11.99260	8.93511	9.60435	8.30691	14.96133	5.05593	8.56397	12.16011	15.10617	21.32758	22.21315
36780	8.35960	5.55723	8.51860	29.36903	25.97892	33.12418	10.32261	8.79126	8.16254	15.34715	9.11183	18.23535	7.35812	5.52274	5.34974	10.27767	14.94168	19.93323
36950	5.84252	6.86117	8.60069	13.26448	11.56554	11.89880	12.84542	9.25146	7.54602	19.75733	13.11290	14.27214	8.06715	6.42502	6.27063	27.33473	20.57294	22.37484
37110	8.20623	7.91670	8.51661	13.28899	27.75244	18.98262	6.91424	8.45974	6.31030	14.64340	11.99266	35.35969	8.28488	5.81538	11.49256	31.47242	26.27594	41.29090
37270	7.06316	6.90194	6.68660	78.57733	79.16607	44.70112	11.54651	14.53659	8.86865	39.20811	14.69920	14.24528	7.57141	11.58839	6.50708	31.24663	31.97014	23.20138
37440	8.30835	8.46832	9.56958	25.45049	32.78386	29.30483	14.53836	12.45494	10.07919	51.17061	36.33461	22.85399	8.76041	6.81102	3.46683	21.14310	30.92349	23.83515
37600	6.69645	6.21614	4.60465	17.96197	17.43426	20.86786	11.76227	6.40957	8.03548	16.39873	18.91166	28.34888	7.85728	7.03444	4.96920	14.33871	26.82606	24.18250
37770	8.73888	8.58701	6.22274	12.32618	12.03286	10.02358	12.24118	11.04549	6.66011	24.35596	16.78253	12.41231	7.24384	10.26556	5.57304	19.50606	21.43633	12.41143	23.56	6.1	0.00	7.37	0.01277	0.01291	0.01682	0.00776	0.00578	0.00633	0.00469	0.01268	0.01691	0.00673	0.00683	0.00892	0.01493	0.01099	0.01200	0.00217	0.00615	0.00865
37930	10.02101	10.04426	10.70944	25.57445	20.79557	13.52293	17.75186	11.90062	9.09994	38.05088	38.61072	24.33659	13.29166	5.79286	5.95564	25.53529	49.21493	36.67295
38100	7.56861	7.74079	6.79642	34.24090	30.78982	15.43979	8.32273	7.57982	10.59791	11.84924	16.97300	29.61754	7.70301	10.20646	6.24451	37.64764	37.71933	35.57731
