WetView ver 7.1	07-17-2019	12:15:14
AC9 Absorption and Attenuation Meter
00000311		; Serial number
2	; structure version number
Reserved
0.000000	0.000000		; Depth calibration
19200			; Baud rate
0.100000			; Path length (meters)
23			; number of temperature calibration bins
				12.61517	13.44096	14.46844	15.49904	16.50682	17.50108	18.49752	19.51783	20.49177	21.49009	22.48286	23.50673	24.54012	25.54812	26.49986	27.49321	28.50960	29.48671	30.47471	31.49432	32.50437	33.48679	34.49133	; temperature bins
a650	Blue	18.61587		0.01156	0.01096	0.01010	0.00930	0.00851	0.00774	0.00661	0.00573	0.00499	0.00402	0.00285	0.00203	0.00096	0.00000	-0.00110	-0.00152	-0.00210	-0.00247	-0.00259	-0.00317	-0.00346	-0.00380	-0.00403		; offset and temperature correction info
a676	Green	18.78942		0.00964	0.00899	0.00863	0.00813	0.00730	0.00639	0.00545	0.00448	0.00385	0.00301	0.00233	0.00165	0.00046	0.00000	-0.00106	-0.00167	-0.00251	-0.00280	-0.00316	-0.00329	-0.00377	-0.00392	-0.00441		; offset and temperature correction info
a715	Brown	18.59217		0.01171	0.01109	0.01043	0.00975	0.00878	0.00789	0.00685	0.00572	0.00469	0.00356	0.00255	0.00160	0.00061	0.00000	-0.00063	-0.00113	-0.00152	-0.00183	-0.00226	-0.00293	-0.00364	-0.00404	-0.00473		; offset and temperature correction info
c510	Red	18.18396		-0.00549	-0.00480	-0.00383	-0.00272	-0.00202	-0.00118	-0.00044	-0.00038	-0.00015	-0.00021	0.00013	0.00007	-0.00007	0.00000	-0.00007	-0.00065	-0.00045	-0.00018	0.00007	0.00039	-0.00001	-0.00002	-0.00045		; offset and temperature correction info
c532	Magenta	18.26528		-0.00721	-0.00645	-0.00581	-0.00518	-0.00465	-0.00345	-0.00281	-0.00270	-0.00182	-0.00141	-0.00108	-0.00072	-0.00022	0.00000	0.00044	0.00030	0.00031	-0.00006	-0.00052	-0.00089	-0.00142	-0.00149	-0.00154		; offset and temperature correction info
c555	Black	18.37125		-0.00430	-0.00419	-0.00381	-0.00319	-0.00286	-0.00254	-0.00205	-0.00196	-0.00138	-0.00137	-0.00067	-0.00051	-0.00030	0.00000	0.00067	0.00087	0.00057	0.00027	-0.00015	-0.00089	-0.00127	-0.00137	-0.00150		; offset and temperature correction info
a412	LtBlue	15.33566		-0.06011	-0.05567	-0.05012	-0.04441	-0.03922	-0.03412	-0.02941	-0.02503	-0.02049	-0.01588	-0.01121	-0.00784	-0.00311	0.00000	0.00273	0.00611	0.00757	0.00871	0.01066	0.01299	0.01539	0.01781	0.02175		; offset and temperature correction info
a440	LtGreen	16.05925		-0.01380	-0.01214	-0.01039	-0.00858	-0.00690	-0.00532	-0.00426	-0.00322	-0.00230	-0.00158	-0.00055	0.00006	0.00001	0.00000	0.00017	0.00016	-0.00094	-0.00222	-0.00363	-0.00486	-0.00567	-0.00651	-0.00782		; offset and temperature correction info
a488	Yellow	16.82827		0.00255	0.00293	0.00331	0.00354	0.00373	0.00378	0.00363	0.00350	0.00291	0.00225	0.00215	0.00142	0.00099	0.00000	-0.00092	-0.00169	-0.00295	-0.00396	-0.00479	-0.00542	-0.00582	-0.00604	-0.00663		; offset and temperature correction info
c650	Blue	18.49287		-0.00570	-0.00516	-0.00456	-0.00403	-0.00346	-0.00232	-0.00132	-0.00122	-0.00073	-0.00066	-0.00035	-0.00016	0.00003	0.00000	0.00044	0.00078	0.00108	0.00057	0.00040	-0.00042	-0.00033	-0.00029	-0.00034		; offset and temperature correction info
c676	Green	18.50570		0.00299	0.00293	0.00287	0.00293	0.00278	0.00294	0.00317	0.00251	0.00243	0.00215	0.00139	0.00123	0.00068	0.00000	-0.00041	-0.00106	-0.00205	-0.00268	-0.00325	-0.00413	-0.00495	-0.00610	-0.00674		; offset and temperature correction info
c715	Brown	17.88888		0.00826	0.00812	0.00773	0.00790	0.00766	0.00758	0.00753	0.00650	0.00571	0.00461	0.00359	0.00222	0.00101	0.00000	-0.00146	-0.00284	-0.00385	-0.00448	-0.00463	-0.00513	-0.00623	-0.00715	-0.00838		; offset and temperature correction info
a510	Red	17.18050		0.00353	0.00364	0.00354	0.00361	0.00381	0.00381	0.00356	0.00332	0.00277	0.00229	0.00176	0.00116	0.00036	0.00000	-0.00014	-0.00069	-0.00088	-0.00147	-0.00150	-0.00129	-0.00120	-0.00134	-0.00091		; offset and temperature correction info
a532	Magenta	17.40228		0.00550	0.00548	0.00526	0.00479	0.00464	0.00422	0.00393	0.00328	0.00253	0.00212	0.00136	0.00085	0.00039	0.00000	-0.00059	-0.00146	-0.00188	-0.00262	-0.00330	-0.00393	-0.00491	-0.00540	-0.00605		; offset and temperature correction info
a555	Black	17.72308		0.00849	0.00832	0.00800	0.00760	0.00724	0.00655	0.00580	0.00495	0.00435	0.00347	0.00252	0.00153	0.00049	0.00000	-0.00050	-0.00155	-0.00214	-0.00306	-0.00350	-0.00411	-0.00470	-0.00539	-0.00570		; offset and temperature correction info
c412	LtBlue	16.72802		-0.05949	-0.05458	-0.04744	-0.04134	-0.03547	-0.03064	-0.02511	-0.02047	-0.01574	-0.01163	-0.00761	-0.00442	-0.00204	0.00000	0.00100	0.00051	-0.00043	-0.00239	-0.00475	-0.00629	-0.00827	-0.00955	-0.01337		; offset and temperature correction info
c440	LtGreen	17.42637		-0.02723	-0.02503	-0.02216	-0.01930	-0.01691	-0.01394	-0.01125	-0.00926	-0.00732	-0.00582	-0.00401	-0.00226	-0.00093	0.00000	0.00082	0.00123	0.00133	0.00097	0.00038	-0.00003	-0.00022	-0.00023	-0.00125		; offset and temperature correction info
c488	Yellow	18.03666		-0.00640	-0.00554	-0.00465	-0.00357	-0.00276	-0.00154	-0.00067	-0.00031	-0.00014	-0.00012	0.00046	0.00032	0.00020	0.00000	0.00001	-0.00024	-0.00060	-0.00084	-0.00126	-0.00180	-0.00276	-0.00304	-0.00427		; offset and temperature correction info
0.003500	0.004000	0.015000	0.020000	0.015000	0.020000	2500.000000	2000.000000	1000.000000	; maxANoise	maxCNoise	maxADifference	maxCDifference	minACounts	minCCounts	minRCounts	maxTempSdev	maxDepthSdev
0			; auxilliary capabilities
1			; acquisition binsize
0	2.60720	2.61555	2.21653	14.49710	13.70958	12.91151	12.82056	8.75017	5.50949	11.22654	10.94811	10.46423	4.63980	3.95457	3.40205	23.47379	18.99503	15.42773	36.98	6.0	0.00	-2.04	0.01727	0.01197	0.01516	0.01816	0.01878	0.01469	0.00546	0.01514	0.02002	0.01848	0.01282	0.01634	0.01704	0.01760	0.01375	0.00570	0.01604	0.02133
160	2.60499	2.61741	2.21671	14.50120	13.71521	12.91517	12.82891	8.75222	5.50789	11.23188	10.95553	10.47327	4.64376	3.95522	3.39985	23.50414	19.00220	15.43636
320	2.60324	2.61657	2.21468	14.50627	13.71574	12.91865	12.83488	8.74624	5.50644	11.22986	10.95682	10.47489	4.64038	3.95335	3.40194	23.49736	19.00468	15.44194
490	2.60640	2.61678	2.21541	14.50988	13.72154	12.92291	12.82320	8.75165	5.50779	11.23604	10.96147	10.47569	4.64263	3.95473	3.40333	23.48608	19.00037	15.44250
650	2.60722	2.61917	2.21417	14.51440	13.72440	12.92556	12.82243	8.74624	5.50576	11.23943	10.96427	10.47755	4.64286	3.95651	3.40385	23.51092	19.01848	15.45282
820	2.60953	2.61729	2.21768	14.52013	13.73306	12.93194	12.83505	8.74862	5.51052	11.24418	10.96744	10.48178	4.64234	3.95750	3.39901	23.50475	19.01347	15.45416
980	2.60631	2.61697	2.21729	14.52264	13.73272	12.93653	12.82243	8.74881	5.50686	11.24385	10.97096	10.48755	4.64125	3.95496	3.40111	23.52305	19.01974	15.45618
1150	2.60564	2.61747	2.21344	14.52612	13.73714	12.93887	12.84511	8.74257	5.50301	11.25006	10.97398	10.49399	4.64001	3.95386	3.40192	23.52613	19.03395	15.46529
1310	2.60680	2.61862	2.21454	14.53548	13.74539	12.94605	12.82942	8.74625	5.50575	11.25483	10.98006	10.49599	4.63881	3.95281	3.40002	23.51832	19.03012	15.46300
1480	2.60397	2.61494	2.21530	14.53611	13.74367	12.94733	12.82533	8.74338	5.50615	11.26034	10.98280	10.50225	4.63623	3.95192	3.40122	23.52366	19.03395	15.46881
1640	2.60615	2.61825	2.21614	14.53395	13.74540	12.94421	12.82316	8.74997	5.50736	11.25230	10.98001	10.49544	4.64175	3.95527	3.40064	23.53199	19.03330	15.46206	36.92	6.1	0.00	-2.04	0.01727	0.01198	0.01516	0.01816	0.01878	0.01469	0.00546	0.01514	0.02002	0.01847	0.01282	0.01634	0.01704	0.01760	0.01375	0.00570	0.01604	0.02133
1810	2.60926	2.62023	2.21909	14.53721	13.74274	12.94315	12.85548	8.75698	5.51569	11.25330	10.97804	10.49632	4.64530	3.96147	3.40466	23.53096	19.03204	15.46519
1970	2.61311	2.62118	2.21877	14.53848	13.74403	12.94351	12.83688	8.76027	5.50989	11.25518	10.98437	10.49847	4.64060	3.95928	3.40584	23.53467	19.04076	15.47623
2140	2.60618	2.61511	2.21475	14.54795	13.75623	12.95655	12.81150	8.75111	5.51436	11.26541	10.99092	10.50686	4.64258	3.95564	3.40444	23.53323	19.05055	15.47837
2300	2.60943	2.61689	2.21584	14.54975	13.76025	12.96094	12.83935	8.74859	5.50859	11.27497	10.99682	10.51423	4.63700	3.95336	3.40123	23.53446	19.05247	15.48678
2460	2.60281	2.61463	2.21264	14.55440	13.76317	12.96517	12.82639	8.73930	5.50286	11.27301	10.99596	10.51367	4.63852	3.95221	3.39931	23.54972	19.05794	15.48968
2630	2.60455	2.61621	2.21457	14.55961	13.77110	12.96949	12.82035	8.74545	5.50671	11.27517	11.00369	10.52072	4.63788	3.95507	3.40128	23.54910	19.06354	15.49613
2790	2.60464	2.61606	2.21746	14.56134	13.77391	12.97249	12.83142	8.74762	5.50864	11.27865	11.00513	10.52417	4.63964	3.95380	3.39915	23.55302	19.06612	15.49836
2960	2.60382	2.61515	2.21378	14.56749	13.77551	12.97491	12.82707	8.73968	5.50463	11.28256	11.00702	10.52379	4.63813	3.95018	3.40153	23.56996	19.07006	15.50064
3120	2.60533	2.61579	2.21711	14.56710	13.77594	12.97656	12.81686	8.74688	5.50366	11.28629	11.01240	10.53000	4.63882	3.94916	3.39734	23.56231	19.07111	15.50328
3290	2.60504	2.61814	2.21707	14.56913	13.77671	12.97914	12.82755	8.74617	5.50994	11.28343	11.01155	10.52880	4.63998	3.95548	3.40144	23.56332	19.06820	15.50194	36.92	6.2	0.00	-2.04	0.01727	0.01198	0.01516	0.01816	0.01878	0.01469	0.00546	0.01515	0.02002	0.01847	0.01281	0.01633	0.01705	0.01760	0.01376	0.00570	0.01604	0.02133
3450	2.60466	2.61700	2.21479	14.56620	13.77527	12.97602	12.82406	8.75117	5.50538	11.28318	11.00951	10.52823	4.63925	3.95615	3.40419	23.56952	19.07446	15.50723
3620	2.61013	2.61692	2.21790	14.57025	13.77989	12.98470	12.83454	8.74782	5.50778	11.28792	11.01656	10.53373	4.63901	3.95362	3.40227	23.57118	19.07451	15.50799
3780	2.60909	2.61848	2.21761	14.57871	13.78970	12.99121	12.82517	8.75583	5.50994	11.29260	11.02038	10.54005	4.64241	3.95852	3.40144	23.57780	19.08621	15.51634
3950	2.60539	2.61529	2.21668	14.58050	13.78737	12.99010	12.83514	8.74538	5.50410	11.29133	11.01966	10.53811	4.63799	3.95002	3.39863	23.57407	19.08560	15.51165
4110	2.60584	2.61435	2.21448	14.57709	13.78206	12.98859	12.80552	8.74689	5.50424	11.29076	11.01777	10.53640	4.63610	3.95029	3.39962	23.54804	19.07459	15.50586
4280	2.60694	2.61784	2.21708	14.57583	13.78755	12.98982	12.83369	8.74920	5.50894	11.29400	11.01904	10.53970	4.64066	3.95456	3.40087	23.59892	19.08678	15.51399
4440	2.60668	2.61396	2.21300	14.57956	13.78528	12.99252	12.82832	8.74107	5.50105	11.29506	11.02131	10.54059	4.63909	3.95220	3.40005	23.59125	19.08647	15.51523
4600	2.60421	2.61682	2.21380	14.58006	13.79215	12.99512	12.84196	8.74267	5.50526	11.29671	11.02395	10.54280	4.63907	3.95476	3.40129	23.58235	19.09047	15.52200
4770	2.60770	2.61533	2.21675	14.58535	13.79528	12.99681	12.84205	8.74613	5.50612	11.29935	11.02395	10.54463	4.63833	3.95375	3.40013	23.57180	19.08564	15.51551
4930	2.60296	2.61696	2.21357	14.57876	13.79178	12.99419	12.81447	8.74366	5.50370	11.30128	11.02315	10.54371	4.63666	3.95004	3.39772	23.57739	19.08659	15.51586	36.98	6.2	0.00	-2.04	0.01727	0.01198	0.01516	0.01816	0.01878	0.01469	0.00546	0.01514	0.02002	0.01847	0.01281	0.01634	0.01704	0.01760	0.01375	0.00570	0.01604	0.02133
5100	2.60187	2.61453	2.21379	14.57952	13.78762	12.98914	12.82767	8.74229	5.50435	11.29373	11.01910	10.53843	4.63456	3.95155	3.40069	23.57283	19.08830	15.51479
5260	2.60641	2.61836	2.21652	14.58336	13.79545	12.99331	12.82520	8.74424	5.50341	11.30017	11.02442	10.54591	4.63683	3.95059	3.39896	23.56643	19.09037	15.51844
5430	2.60632	2.61697	2.21659	14.59033	13.79874	12.99736	12.82171	8.74967	5.50693	11.30061	11.02869	10.54964	4.63791	3.95183	3.40005	23.59457	19.09418	15.52489
5590	2.60271	2.61403	2.21029	14.58852	13.79793	13.00673	12.82478	8.73503	5.48867	11.31722	11.03738	10.56110	4.62216	3.93296	3.38168	23.60909	19.11057	15.53512
5750	2.58987	2.59876	2.19473	14.59661	13.82669	13.04226	12.78889	8.71196	5.47193	11.28616	11.05431	10.61560	4.60964	3.92842	3.37912	23.62904	19.12813	15.55844
5920	2.58621	2.59575	2.19713	14.63529	13.81227	13.02135	12.79178	8.72111	5.48593	11.32109	11.05058	10.57107	4.62263	3.94225	3.39542	23.58960	19.10696	15.52020
6100	2.60803	2.62254	2.22397	14.59179	13.80414	12.99518	12.85062	8.77972	5.54302	11.29202	11.02244	10.54082	4.67864	3.99572	3.44397	23.56911	19.07528	15.50501
6260	2.64401	2.65558	2.25272	14.57428	13.78099	12.98296	12.89042	8.81005	5.56930	11.28767	11.01875	10.54018	4.70054	4.01250	3.45765	23.53753	19.05786	15.49323
6420	2.65975	2.66923	2.26567	14.55467	13.77070	12.97856	12.90887	8.82444	5.57299	11.27457	11.01710	10.53513	4.70580	4.00572	3.45097	23.55445	19.06320	15.49405
6570	2.63923	2.64498	2.24045	14.58245	13.80361	12.98469	12.84431	8.76358	5.51347	11.32115	11.04362	10.55944	4.64321	3.94466	3.38954	23.58168	19.09677	15.53646	36.92	6.6	0.00	-2.04	0.01726	0.01197	0.01515	0.01817	0.01879	0.01470	0.00546	0.01513	0.02000	0.01848	0.01282	0.01634	0.01703	0.01759	0.01375	0.00570	0.01604	0.02134
6740	2.58914	2.59975	2.19694	14.61642	13.82941	13.02794	12.81173	8.71682	5.48328	11.33041	11.05562	10.57642	4.61814	3.93606	3.38836	23.58478	19.09673	15.52627
6910	2.60152	2.61811	2.21821	14.60662	13.82643	13.01941	12.83500	8.75711	5.51492	11.31320	11.05610	10.57337	4.65048	3.96482	3.41425	23.59493	19.08905	15.52290
7070	2.62329	2.63599	2.23489	14.59905	13.81226	13.00776	12.86337	8.78008	5.53889	11.30155	11.04151	10.56002	4.67490	3.99089	3.43563	23.57526	19.08063	15.51669
7230	2.63627	2.64576	2.24525	14.58716	13.80582	13.00157	12.86158	8.78797	5.54332	11.30314	11.04076	10.56018	4.67438	3.98461	3.43162	23.56328	19.07976	15.51797
7390	2.63252	2.64235	2.23858	14.59213	13.81313	13.01032	12.85525	8.77345	5.52750	11.31533	11.04988	10.57325	4.66075	3.97184	3.42015	23.58333	19.08695	15.52316
7560	2.62216	2.63008	2.23066	14.59612	13.81653	13.00989	12.85910	8.76806	5.52114	11.31284	11.05134	10.56896	4.65826	3.97366	3.42271	23.57692	19.09550	15.52961
7720	2.62701	2.63552	2.23567	14.60279	13.82356	13.01929	12.86474	8.77296	5.52944	11.32028	11.06038	10.57723	4.66376	3.97492	3.42154	23.60135	19.09370	15.53091
7880	2.62421	2.63147	2.23057	14.60398	13.82466	13.02093	12.85328	8.76821	5.52619	11.32313	11.06135	10.58113	4.66265	3.97358	3.42177	23.60571	19.10626	15.53785
8050	2.62652	2.63561	2.23330	14.61172	13.83179	13.02611	12.85721	8.77193	5.52732	11.32646	11.06493	10.58464	4.66084	3.97458	3.41989	23.59430	19.10397	15.53835
8210	2.61981	2.62734	2.22859	14.61070	13.83303	13.02676	12.83363	8.76308	5.51733	11.32973	11.06540	10.58689	4.65514	3.96838	3.41500	23.60137	19.11142	15.54436	36.92	6.1	0.00	-2.04	0.01725	0.01197	0.01515	0.01817	0.01879	0.01470	0.00545	0.01512	0.02000	0.01848	0.01282	0.01634	0.01702	0.01758	0.01374	0.00571	0.01605	0.02134
8370	2.62085	2.63148	2.22724	14.61883	13.84042	13.03372	12.84875	8.76492	5.52040	11.33526	11.07034	10.58922	4.65418	3.96852	3.41424	23.60158	19.11019	15.54351
8540	2.61798	2.62889	2.22556	14.61412	13.83584	13.03465	12.83781	8.75895	5.51806	11.33414	11.06780	10.58606	4.65409	3.97064	3.41725	23.60137	19.10308	15.54377
8700	2.61957	2.63119	2.22874	14.61548	13.83386	13.03275	12.85756	8.76411	5.52080	11.33531	11.06891	10.59184	4.65322	3.96963	3.41349	23.60842	19.10369	15.54227
8870	2.61912	2.62869	2.22870	14.61490	13.83535	13.03334	12.86132	8.76177	5.52263	11.33570	11.06950	10.59221	4.65455	3.96844	3.40988	23.60448	19.11024	15.54727
9030	2.61650	2.62723	2.22482	14.61389	13.83682	13.03196	12.84541	8.75777	5.51829	11.33524	11.06893	10.59455	4.64909	3.96614	3.41074	23.60469	19.10993	15.54481
9190	2.61780	2.63070	2.22818	14.62012	13.84222	13.03952	12.83269	8.76246	5.51972	11.34284	11.07668	10.59644	4.65203	3.96691	3.41394	23.62254	19.11845	15.55217
9360	2.61713	2.62717	2.22489	14.61759	13.83731	13.03983	12.84772	8.75724	5.51496	11.33436	11.07319	10.59513	4.65587	3.96594	3.41834	23.61693	19.12158	15.54892
9520	2.61857	2.63126	2.22996	14.61718	13.83354	13.03686	12.83217	8.75692	5.51808	11.34275	11.07001	10.59743	4.64939	3.96268	3.41112	23.62191	19.11147	15.54914
9690	2.61560	2.62674	2.22622	14.61681	13.84042	13.03886	12.84456	8.75931	5.51660	11.34381	11.07695	10.59862	4.64826	3.96440	3.40796	23.59972	19.11573	15.54953
9850	2.61300	2.62137	2.22359	14.61729	13.83952	13.03956	12.83672	8.75727	5.51434	11.34067	11.07460	10.59559	4.64708	3.96165	3.40795	23.59569	19.10919	15.54400	36.92	5.9	0.00	-2.04	0.01725	0.01196	0.01514	0.01817	0.01879	0.01470	0.00545	0.01512	0.01999	0.01848	0.01282	0.01634	0.01702	0.01758	0.01374	0.00571	0.01605	0.02135
10010	2.61459	2.62789	2.22691	14.61931	13.84225	13.03922	12.84441	8.75945	5.51704	11.34455	11.07601	10.59773	4.65191	3.96308	3.41192	23.61248	19.11745	15.54824
10180	2.61368	2.62474	2.22390	14.61724	13.83789	13.03787	12.85203	8.75342	5.51171	11.34312	11.07431	10.59830	4.64888	3.96182	3.40933	23.60335	19.11926	15.55090
10340	2.61334	2.62269	2.22387	14.61981	13.84107	13.03756	12.84459	8.75403	5.51377	11.34821	11.07577	10.60211	4.64347	3.95705	3.40336	23.60978	19.11697	15.54629
10510	2.61090	2.62284	2.21996	14.61447	13.83791	13.03756	12.83689	8.74826	5.50722	11.34323	11.07210	10.59729	4.64926	3.96331	3.41032	23.60646	19.12027	15.54944
10670	2.61630	2.62845	2.22524	14.61954	13.84162	13.03977	12.85725	8.75610	5.51201	11.34724	11.07906	10.60237	4.64581	3.96114	3.40673	23.62784	19.11451	15.54579
10840	2.61557	2.62582	2.22667	14.62138	13.84237	13.04517	12.84356	8.75602	5.51597	11.35011	11.07951	10.60457	4.64991	3.96251	3.40877	23.61310	19.11662	15.54944
11000	2.61455	2.62654	2.22458	14.62082	13.84135	13.04065	12.82315	8.75226	5.51236	11.34736	11.07637	10.60411	4.64665	3.95819	3.40557	23.60398	19.11618	15.54777
11160	2.61115	2.62323	2.22100	14.62032	13.84266	13.03970	12.82170	8.74976	5.50999	11.34698	11.07708	10.60315	4.64652	3.95996	3.40841	23.60335	19.12110	15.55142
11330	2.61404	2.62498	2.22283	14.62393	13.84472	13.04303	12.82895	8.75386	5.51155	11.34924	11.07803	10.60547	4.64615	3.95888	3.40686	23.60460	19.11490	15.55227
11490	2.61047	2.62494	2.22123	14.62346	13.84692	13.04617	12.83036	8.74829	5.51263	11.35274	11.08334	10.60809	4.64536	3.95951	3.40354	23.61819	19.12289	15.55498	36.92	6.1	0.00	-2.04	0.01725	0.01196	0.01514	0.01817	0.01879	0.01470	0.00545	0.01512	0.01999	0.01848	0.01282	0.01634	0.01702	0.01757	0.01373	0.00571	0.01605	0.02135
11660	2.61064	2.62455	2.22149	14.62629	13.84584	13.04386	12.84010	8.75235	5.50836	11.35132	11.08162	10.60492	4.64322	3.95746	3.40588	23.61778	19.12407	15.55583
11820	2.61323	2.62242	2.22208	14.62608	13.84886	13.04410	12.83045	8.75354	5.51066	11.35177	11.08272	10.60491	4.64136	3.95517	3.40245	23.60119	19.11625	15.55028
11990	2.60937	2.62565	2.22315	14.62273	13.85025	13.04738	12.84104	8.75451	5.51364	11.35362	11.08686	10.61149	4.64447	3.96070	3.40600	23.62483	19.12236	15.55474
12150	2.61063	2.62253	2.22160	14.62381	13.84701	13.04471	12.82729	8.75007	5.50957	11.35113	11.08458	10.60758	4.64338	3.96140	3.40664	23.62255	19.12148	15.55722
12320	2.61426	2.62295	2.22090	14.62884	13.85535	13.04836	12.83480	8.75354	5.51283	11.35593	11.08925	10.61259	4.64318	3.95608	3.40399	23.61425	19.12403	15.55646
12480	2.61098	2.62360	2.22313	14.63521	13.86000	13.05288	12.83105	8.75525	5.51444	11.36222	11.09363	10.61721	4.64592	3.96209	3.40667	23.63959	19.12742	15.56362
12650	2.61129	2.62191	2.21956	14.63261	13.85961	13.04902	12.83412	8.74825	5.50983	11.35684	11.08934	10.61244	4.64667	3.96075	3.40744	23.61612	19.13151	15.56310
12810	2.61242	2.62101	2.22107	14.63378	13.85890	13.05557	12.83045	8.74926	5.50748	11.36109	11.09199	10.61464	4.64152	3.95704	3.40257	23.63918	19.12860	15.55979
12970	2.61049	2.62005	2.22058	14.63334	13.86271	13.05540	12.83805	8.75057	5.51187	11.36068	11.09257	10.61543	4.64431	3.96009	3.40315	23.62483	19.12623	15.56018
13140	2.60982	2.61806	2.21955	14.63213	13.85397	13.05050	12.81006	8.74281	5.50335	11.35829	11.08916	10.61265	4.64171	3.95402	3.40196	23.61425	19.12286	15.55768	36.92	6.1	0.00	-2.04	0.01725	0.01196	0.01514	0.01817	0.01879	0.01470	0.00545	0.01512	0.01999	0.01848	0.01282	0.01634	0.01702	0.01757	0.01373	0.00571	0.01605	0.02135
13300	2.60888	2.61943	2.22065	14.63061	13.85618	13.04916	12.82934	8.74456	5.50442	11.36006	11.09213	10.61475	4.64131	3.95374	3.40228	23.62359	19.11890	15.55602
13470	2.60857	2.61905	2.21713	14.62939	13.85361	13.04852	12.83301	8.74554	5.50242	11.35818	11.08852	10.61547	4.64345	3.95754	3.40674	23.62691	19.13038	15.56482
13630	2.61193	2.62185	2.22139	14.63318	13.85779	13.05486	12.82977	8.74912	5.50723	11.36371	11.09368	10.62100	4.64191	3.95994	3.40437	23.61653	19.12634	15.56035
13800	2.60794	2.61789	2.21957	14.63268	13.86122	13.05512	12.82977	8.74658	5.50764	11.36622	11.09295	10.61802	4.64333	3.95827	3.40381	23.62920	19.12576	15.56070
13960	2.60943	2.61904	2.22155	14.63029	13.86030	13.05631	12.82507	8.74761	5.50806	11.36820	11.09443	10.61807	4.64244	3.95579	3.40312	23.61819	19.12400	15.55530
14130	2.60653	2.61925	2.21737	14.62992	13.85859	13.05452	12.80495	8.74749	5.50781	11.37077	11.09598	10.62126	4.64176	3.95772	3.40033	23.62940	19.12625	15.55580
14290	2.60504	2.61600	2.21827	14.63070	13.85748	13.05476	12.83088	8.74548	5.50475	11.36957	11.09651	10.62140	4.63886	3.95408	3.40137	23.62110	19.12031	15.55672
14460	2.60697	2.61760	2.21703	14.63024	13.85724	13.05307	12.80154	8.74219	5.50212	11.36877	11.09667	10.62323	4.64028	3.95591	3.40205	23.61778	19.12229	15.55430
14620	2.60580	2.61738	2.21820	14.63254	13.86110	13.05386	12.79780	8.74638	5.50617	11.37051	11.09543	10.62304	4.64112	3.95446	3.40092	23.61861	19.12427	15.55774
14790	2.60452	2.61665	2.21663	14.63246	13.85950	13.05271	12.80041	8.74267	5.50294	11.36684	11.09493	10.62299	4.63851	3.95628	3.40205	23.61280	19.12093	15.55722	36.92	6.1	0.00	-2.04	0.01725	0.01196	0.01514	0.01817	0.01880	0.01470	0.00545	0.01512	0.01999	0.01848	0.01282	0.01634	0.01701	0.01757	0.01373	0.00571	0.01605	0.02135
14950	2.60902	2.61812	2.21750	14.62927	13.85812	13.05440	12.80757	8.74337	5.50297	11.36935	11.09557	10.62174	4.63700	3.95247	3.39821	23.62089	19.11741	15.55491
15120	2.60679	2.61810	2.21930	14.62915	13.85671	13.05282	12.83273	8.74227	5.50834	11.37161	11.09621	10.62557	4.63845	3.95412	3.39877	23.62608	19.13038	15.56111
15280	2.60597	2.61726	2.21649	14.63407	13.85969	13.05209	12.79190	8.74030	5.50286	11.36728	11.09336	10.62377	4.63847	3.95720	3.40403	23.63918	19.13395	15.56750
15440	2.60618	2.61763	2.21895	14.63771	13.86544	13.05637	12.83367	8.74362	5.50409	11.37359	11.09812	10.62602	4.63766	3.95170	3.39862	23.63959	19.12854	15.56277
15610	2.60248	2.61404	2.21693	14.63529	13.86369	13.05630	12.81370	8.73954	5.50204	11.37221	11.09666	10.62352	4.63494	3.95083	3.39688	23.63211	19.12752	15.56294
15770	2.60223	2.61167	2.21355	14.63619	13.86293	13.05618	12.81831	8.73536	5.49701	11.36831	11.09818	10.62368	4.63629	3.95402	3.39943	23.64230	19.13510	15.57011
15940	2.60708	2.61753	2.21679	14.64507	13.86986	13.06209	12.80552	8.74153	5.50387	11.37464	11.10270	10.62803	4.63741	3.94853	3.39933	23.62754	19.13030	15.56625
16100	2.60353	2.61568	2.21562	14.64268	13.86814	13.06119	12.81822	8.74034	5.50154	11.37509	11.10465	10.62671	4.63265	3.94819	3.39706	23.62733	19.13122	15.56586
16270	2.60517	2.61712	2.21781	14.64456	13.87127	13.06264	12.81942	8.73951	5.50220	11.37494	11.10494	10.63010	4.63575	3.95084	3.39704	23.63232	19.13074	15.56887
16430	2.60217	2.61456	2.21609	14.64483	13.86841	13.06549	12.79904	8.73523	5.49934	11.37558	11.10306	10.62796	4.63627	3.95011	3.39537	23.62889	19.13202	15.56897	36.98	6.1	0.00	-2.04	0.01725	0.01196	0.01514	0.01817	0.01880	0.01470	0.00545	0.01512	0.01999	0.01848	0.01282	0.01634	0.01701	0.01757	0.01373	0.00571	0.01605	0.02135
16600	2.60256	2.61355	2.21540	14.64317	13.86812	13.06225	12.82367	8.74012	5.49872	11.37406	11.10494	10.62977	4.63189	3.95026	3.39876	23.63366	19.13276	15.57030
16760	2.60386	2.61339	2.21704	14.64584	13.87047	13.06256	12.81761	8.73838	5.49978	11.37581	11.10465	10.62937	4.63521	3.94842	3.39702	23.63076	19.13012	15.56594
16930	2.60204	2.61571	2.21492	14.64129	13.86767	13.06115	12.80645	8.74146	5.49897	11.37669	11.10370	10.62979	4.63416	3.94845	3.39650	23.61664	19.12344	15.56459
17090	2.60228	2.61057	2.21378	14.63731	13.86046	13.05827	12.82444	8.73711	5.49892	11.36774	11.09969	10.62447	4.63448	3.95295	3.39928	23.62120	19.12559	15.56832
17260	2.60346	2.61540	2.21479	14.64032	13.86512	13.05984	12.80849	8.73447	5.50062	11.37422	11.10306	10.62782	4.63573	3.94999	3.39642	23.61747	19.12330	15.56315
17420	2.60254	2.61334	2.21681	14.63784	13.86430	13.06046	12.82264	8.73802	5.49905	11.37362	11.10423	10.62769	4.63536	3.94951	3.39977	23.63595	19.12634	15.56374
17580	2.60363	2.61339	2.21662	14.63315	13.85836	13.05465	12.78993	8.73468	5.49564	11.37130	11.10222	10.62431	4.63274	3.94758	3.39807	23.62722	19.12577	15.56269
17750	2.60003	2.61172	2.21382	14.63558	13.86022	13.05543	12.80593	8.73436	5.49740	11.37068	11.09976	10.62530	4.63116	3.94516	3.39389	23.60481	19.12392	15.56091
17910	2.60190	2.61285	2.21366	14.63333	13.86187	13.05393	12.80398	8.74158	5.49858	11.37022	11.10029	10.62658	4.63421	3.94952	3.39614	23.62182	19.12731	15.56197
18080	2.60014	2.60870	2.21327	14.63508	13.86340	13.05788	12.80062	8.73412	5.50030	11.37175	11.10224	10.62589	4.63429	3.94698	3.39760	23.63460	19.13092	15.56625	36.98	6.1	0.00	-2.04	0.01725	0.01196	0.01514	0.01817	0.01880	0.01470	0.00545	0.01512	0.01999	0.01848	0.01282	0.01634	0.01701	0.01757	0.01373	0.00571	0.01605	0.02135
18240	2.60185	2.61154	2.21631	14.63920	13.86666	13.06302	12.80743	8.73380	5.49760	11.37634	11.10508	10.63002	4.63371	3.95031	3.39611	23.62525	19.13150	15.56653
18410	2.60088	2.61176	2.21371	14.63934	13.86685	13.06090	12.79764	8.73433	5.49930	11.37834	11.10672	10.63072	4.63408	3.95040	3.39755	23.62940	19.12841	15.56579
18570	2.60124	2.61066	2.21478	14.63573	13.86617	13.05890	12.81186	8.73357	5.49638	11.37848	11.10616	10.63093	4.63379	3.94972	3.39748	23.62815	19.13770	15.56969
18740	2.60166	2.61298	2.21657	14.64125	13.86989	13.06448	12.82235	8.73194	5.49618	11.38386	11.10995	10.63707	4.63157	3.94614	3.39401	23.63626	19.13718	15.57065
18900	2.60130	2.61503	2.21805	14.64726	13.87437	13.06970	12.82295	8.73842	5.50061	11.39055	11.11412	10.64026	4.63242	3.94785	3.39878	23.63605	19.14982	15.57950
19070	2.60315	2.61082	2.21330	14.64723	13.87451	13.07307	12.80786	8.73130	5.49542	11.38947	11.11266	10.63896	4.63412	3.94876	3.39392	23.65707	19.14753	15.58077
19230	2.60193	2.61143	2.21244	14.64958	13.87296	13.07080	12.82560	8.73304	5.49706	11.38616	11.11162	10.63691	4.63107	3.94374	3.39350	23.63210	19.13955	15.57481
19390	2.59907	2.60929	2.21168	14.64387	13.87134	13.06763	12.81587	8.73573	5.49995	11.38617	11.10982	10.63638	4.63199	3.94749	3.39509	23.64396	19.13806	15.57187
19560	2.59866	2.60818	2.21092	14.64307	13.86893	13.06486	12.82483	8.73334	5.49655	11.38532	11.11089	10.63510	4.63611	3.94927	3.39667	23.61777	19.14171	15.57756
19720	2.60269	2.61312	2.21549	14.65458	13.88173	13.07852	12.81986	8.73935	5.49737	11.39652	11.11879	10.64519	4.63364	3.94644	3.39724	23.62827	19.14865	15.58166	36.92	6.2	0.00	-2.04	0.01725	0.01196	0.01514	0.01817	0.01880	0.01470	0.00545	0.01512	0.01999	0.01848	0.01282	0.01634	0.01701	0.01757	0.01373	0.00571	0.01605	0.02135
19880	2.60138	2.61138	2.21223	14.65325	13.87882	13.07379	12.82293	8.73870	5.49723	11.39535	11.11896	10.64430	4.62985	3.94306	3.39210	23.64032	19.14314	15.57745
20050	2.59882	2.61047	2.21139	14.65099	13.87502	13.06900	12.81363	8.73280	5.49331	11.38940	11.11360	10.63917	4.62721	3.93987	3.38963	23.64261	19.14076	15.57505
20210	2.59601	2.60895	2.21129	14.64922	13.87782	13.07343	12.80758	8.73461	5.49590	11.39319	11.11632	10.64286	4.63164	3.94334	3.39565	23.64906	19.14450	15.58044
20380	2.59914	2.61010	2.21285	14.65170	13.87469	13.07145	12.82011	8.73174	5.49447	11.39207	11.11382	10.64007	4.62975	3.94720	3.39483	23.64969	19.15046	15.58231
20540	2.60038	2.61070	2.21127	14.65235	13.87794	13.07284	12.81406	8.73278	5.49710	11.39175	11.11570	10.64121	4.63002	3.94669	3.39460	23.65927	19.14953	15.58319
20710	2.59884	2.61181	2.21228	14.65242	13.87776	13.07465	12.80818	8.73071	5.49497	11.39061	11.11641	10.63791	4.63248	3.94920	3.39708	23.65823	19.14389	15.58077
20870	2.59942	2.61278	2.21275	14.65016	13.87359	13.07086	12.80128	8.73058	5.49745	11.39184	11.11586	10.64021	4.62966	3.94893	3.39395	23.65573	19.14547	15.57989
21040	2.60139	2.61303	2.21416	14.65108	13.87488	13.07370	12.80060	8.73312	5.49612	11.39406	11.11730	10.64450	4.63009	3.94610	3.39426	23.64969	19.15077	15.58227
21200	2.60019	2.61202	2.21265	14.65166	13.87786	13.07857	12.82190	8.74026	5.49752	11.39665	11.12081	10.64481	4.63272	3.94789	3.39352	23.66740	19.15310	15.58712
21370	2.59936	2.60987	2.21312	14.65394	13.87705	13.07333	12.81044	8.73252	5.49258	11.39471	11.11655	10.64493	4.63053	3.94968	3.39772	23.66083	19.15544	15.59168	36.92	6.1	0.00	-2.04	0.01725	0.01196	0.01514	0.01817	0.01880	0.01470	0.00545	0.01511	0.01998	0.01848	0.01282	0.01634	0.01701	0.01757	0.01373	0.00571	0.01605	0.02135
21530	2.60348	2.61078	2.21645	14.65920	13.88414	13.08049	12.80635	8.73665	5.49850	11.40063	11.12456	10.64876	4.62951	3.94719	3.39288	23.66813	19.16158	15.59640
21700	2.59958	2.61092	2.21542	14.66070	13.88672	13.08575	12.80124	8.73472	5.49481	11.40414	11.12923	10.65360	4.63101	3.94480	3.39328	23.67230	19.16343	15.59990
21860	2.59926	2.60982	2.21359	14.66849	13.89245	13.09041	12.81931	8.73442	5.49729	11.40731	11.12880	10.65424	4.63182	3.94632	3.39402	23.65854	19.16343	15.60171
22030	2.59751	2.60933	2.21207	14.66789	13.89102	13.09220	12.80405	8.72737	5.49347	11.41016	11.12887	10.65527	4.63333	3.94860	3.39839	23.65604	19.16913	15.60418
22190	2.60208	2.61247	2.21250	14.67119	13.89370	13.09426	12.81087	8.73680	5.49721	11.41228	11.13471	10.66115	4.62837	3.94207	3.38919	23.66187	19.16546	15.60405
22360	2.59884	2.61137	2.21253	14.67676	13.89970	13.10014	12.81863	8.73546	5.49547	11.42047	11.14070	10.66710	4.62913	3.94553	3.39238	23.68859	19.17713	15.61184
22520	2.59883	2.60925	2.21323	14.67613	13.90011	13.09971	12.80840	8.73008	5.49058	11.41845	11.13883	10.66398	4.62527	3.94225	3.38966	23.67543	19.17828	15.60819
22690	2.59544	2.60793	2.21024	14.67648	13.90124	13.10000	12.82085	8.72881	5.48961	11.41986	11.14145	10.66434	4.62628	3.94396	3.39232	23.68128	19.17510	15.61141
22850	2.59815	2.60856	2.21042	14.67770	13.90364	13.10036	12.81812	8.72764	5.48934	11.41819	11.14009	10.66552	4.62253	3.93882	3.38704	23.66688	19.17757	15.61162
23020	2.59279	2.60711	2.21197	14.68223	13.90719	13.10620	12.83822	8.72994	5.49538	11.42393	11.14629	10.67243	4.62760	3.94498	3.39240	23.67188	19.18477	15.62015	36.92	6.1	0.00	-2.04	0.01725	0.01196	0.01514	0.01817	0.01880	0.01470	0.00545	0.01511	0.01998	0.01848	0.01282	0.01634	0.01701	0.01757	0.01373	0.00571	0.01605	0.02135
23180	2.59650	2.60539	2.20888	14.68741	13.90950	13.10696	12.79243	8.72863	5.48942	11.42656	11.14747	10.67234	4.62706	3.94088	3.39068	23.68420	19.18136	15.62004
23340	2.59693	2.60827	2.20900	14.68810	13.90963	13.10629	12.81491	8.72621	5.48925	11.42632	11.14874	10.67273	4.62503	3.94013	3.38717	23.67710	19.18225	15.61811
23510	2.59705	2.60965	2.21528	14.69057	13.91219	13.11010	12.82541	8.73289	5.49384	11.42944	11.15005	10.67526	4.62770	3.94446	3.39117	23.67606	19.18720	15.62572
23670	2.59703	2.61052	2.21031	14.69131	13.91022	13.10802	12.82481	8.72564	5.49019	11.42326	11.14585	10.67062	4.62813	3.94305	3.39029	23.69131	19.18698	15.62729
23840	2.59734	2.60859	2.21051	14.69018	13.91159	13.10945	12.79447	8.72963	5.49140	11.42481	11.14812	10.67009	4.62471	3.93991	3.38720	23.67168	19.18831	15.61903
24000	2.59499	2.60609	2.20789	14.68861	13.90870	13.10794	12.79226	8.72437	5.48787	11.42692	11.14867	10.67055	4.62331	3.93971	3.38765	23.69277	19.18490	15.61844
24160	2.59394	2.60358	2.20783	14.68879	13.90860	13.10794	12.82105	8.72475	5.49192	11.42571	11.14959	10.67360	4.62502	3.93875	3.38869	23.68734	19.18769	15.62361
24330	2.59482	2.60675	2.20967	14.69594	13.91672	13.11484	12.80451	8.72721	5.49063	11.43380	11.15651	10.67774	4.62705	3.94261	3.39251	23.69926	19.19867	15.62971
24490	2.59724	2.60773	2.20774	14.69682	13.91075	13.11391	12.81926	8.72214	5.48564	11.43431	11.15386	10.67770	4.62485	3.94266	3.38919	23.70910	19.19783	15.62911
24660	2.59616	2.60560	2.20800	14.69570	13.91553	13.11642	12.79952	8.72618	5.48637	11.43464	11.15637	10.67947	4.62459	3.94053	3.38649	23.69361	19.19713	15.62984	36.92	6.2	0.00	-2.04	0.01725	0.01196	0.01514	0.01817	0.01880	0.01470	0.00545	0.01511	0.01998	0.01848	0.01282	0.01634	0.01701	0.01757	0.01373	0.00571	0.01605	0.02135
24820	2.59391	2.60682	2.20534	14.69315	13.91096	13.11364	12.80215	8.72429	5.48769	11.42941	11.15105	10.67655	4.62471	3.94394	3.39148	23.69863	19.20086	15.63434
24980	2.59657	2.60881	2.21034	14.70019	13.91761	13.11949	12.80863	8.72756	5.48953	11.43818	11.16018	10.68514	4.62318	3.93892	3.38903	23.70156	19.20210	15.63583
25150	2.59348	2.61073	2.21107	14.70672	13.92642	13.12788	12.80710	8.73140	5.49196	11.44434	11.16361	10.68857	4.62873	3.94368	3.39041	23.70721	19.20866	15.64042
25310	2.59739	2.60758	2.20848	14.70493	13.92186	13.12349	12.81306	8.72805	5.48713	11.44103	11.16118	10.68607	4.62707	3.94154	3.38873	23.70742	19.21039	15.63950
25480	2.59218	2.60474	2.20788	14.70394	13.92416	13.12428	12.81716	8.72970	5.49022	11.43886	11.16116	10.68454	4.62457	3.94243	3.38666	23.71810	19.20329	15.63561
25640	2.59325	2.60508	2.20893	14.70322	13.92344	13.12527	12.80880	8.72592	5.48948	11.44077	11.16504	10.68876	4.62344	3.93643	3.38725	23.69403	19.20751	15.63702
25800	2.59140	2.60310	2.20546	14.70730	13.92410	13.12052	12.79466	8.72315	5.48196	11.44010	11.16149	10.68686	4.62017	3.93958	3.38784	23.71454	19.21146	15.64268
25970	2.59516	2.60783	2.20839	14.70977	13.92948	13.12771	12.81895	8.72781	5.48891	11.44541	11.16850	10.69376	4.62279	3.93793	3.38575	23.69967	19.20764	15.64088
26130	2.59209	2.60523	2.20877	14.70841	13.92640	13.12577	12.82680	8.72194	5.48765	11.44278	11.16836	10.69151	4.62072	3.93669	3.38731	23.70616	19.20573	15.63882
26300	2.59371	2.60365	2.20793	14.70802	13.92818	13.12550	12.81562	8.72011	5.48454	11.44423	11.16770	10.69206	4.61915	3.93633	3.38454	23.71873	19.20260	15.63780	36.98	6.0	0.00	-2.04	0.01725	0.01196	0.01514	0.01817	0.01880	0.01470	0.00545	0.01511	0.01998	0.01848	0.01282	0.01634	0.01701	0.01757	0.01373	0.00571	0.01605	0.02135
26460	2.59112	2.60475	2.20840	14.70591	13.93032	13.12785	12.81374	8.72653	5.49229	11.44697	11.17004	10.69419	4.62417	3.94030	3.38730	23.71223	19.20855	15.64402
26620	2.59477	2.60502	2.20622	14.71082	13.93412	13.12888	12.79772	8.72409	5.48496	11.44890	11.17169	10.69326	4.62336	3.94020	3.38684	23.70553	19.20886	15.64316
26790	2.59277	2.60689	2.20831	14.71247	13.93345	13.12893	12.81980	8.72293	5.48501	11.44940	11.17209	10.69537	4.62040	3.93669	3.38380	23.69695	19.20753	15.64382
26950	2.59112	2.60231	2.20602	14.71247	13.93361	13.13147	12.81238	8.72289	5.48247	11.44978	11.17385	10.69745	4.62375	3.94147	3.38834	23.71789	19.21800	15.65124
27120	2.59526	2.60795	2.20864	14.71959	13.94005	13.13855	12.81638	8.72753	5.48601	11.45558	11.17776	10.69960	4.62351	3.93994	3.38421	23.70511	19.21503	15.64762
27280	2.59382	2.60849	2.20895	14.71722	13.93957	13.13719	12.80292	8.72507	5.48825	11.45755	11.17921	10.70171	4.62056	3.93850	3.38820	23.70616	19.21791	15.64931
27450	2.59496	2.60656	2.20864	14.71801	13.93947	13.13831	12.81869	8.72967	5.48811	11.45919	11.17948	10.70464	4.62129	3.93686	3.38405	23.72103	19.21747	15.65503
27610	2.59281	2.60479	2.20936	14.72170	13.94064	13.14182	12.81118	8.72422	5.48774	11.46111	11.18303	10.70638	4.62097	3.93864	3.38690	23.73089	19.22617	15.65945
27780	2.59276	2.60507	2.20784	14.72550	13.94404	13.14581	12.79355	8.72274	5.48613	11.46213	11.18229	10.70542	4.62114	3.93717	3.38415	23.72082	19.22666	15.65837
27940	2.59156	2.60659	2.20651	14.72624	13.94537	13.14805	12.81261	8.72696	5.48775	11.46329	11.18506	10.70804	4.62261	3.93859	3.38578	23.72251	19.23157	15.66513	36.92	6.2	0.00	-2.04	0.01725	0.01196	0.01514	0.01817	0.01880	0.01470	0.00545	0.01511	0.01998	0.01848	0.01282	0.01634	0.01701	0.01757	0.01373	0.00571	0.01605	0.02135
28110	2.59176	2.60406	2.20781	14.72489	13.94358	13.14331	12.80733	8.72121	5.48416	11.46343	11.18144	10.70406	4.62139	3.94087	3.38794	23.71873	19.23437	15.66610
28270	2.59425	2.60466	2.20903	14.72529	13.94613	13.14733	12.80205	8.72066	5.48490	11.46337	11.18348	10.70637	4.62282	3.93750	3.38367	23.72460	19.22997	15.66493
28440	2.59380	2.60611	2.21031	14.72847	13.94893	13.15139	12.83181	8.72558	5.48845	11.46615	11.19007	10.71124	4.62510	3.93930	3.38706	23.72356	19.23962	15.67246
28600	2.59329	2.60704	2.20632	14.72508	13.94388	13.14721	12.81236	8.71979	5.48370	11.46498	11.18352	10.70825	4.62214	3.93782	3.38617	23.72565	19.23580	15.66594
28760	2.59278	2.60327	2.20591	14.72032	13.94302	13.14375	12.80665	8.71996	5.48572	11.46214	11.18158	10.70745	4.62427	3.93705	3.38508	23.72439	19.23393	15.66528
28930	2.59236	2.60604	2.20569	14.72420	13.94518	13.14528	12.81270	8.72317	5.48827	11.46458	11.18535	10.70743	4.62381	3.93551	3.38486	23.72523	19.22815	15.66464
29090	2.59110	2.60309	2.20516	14.71907	13.94109	13.14704	12.81040	8.72412	5.48382	11.46576	11.18450	10.70788	4.61924	3.93687	3.38575	23.73279	19.23090	15.66194
29260	2.59185	2.60386	2.20711	14.72048	13.94152	13.14550	12.79634	8.71655	5.48299	11.46629	11.18406	10.70720	4.61664	3.93405	3.38537	23.71245	19.22850	15.66024
29420	2.59118	2.60232	2.20690	14.72030	13.94360	13.14920	12.80963	8.72862	5.48696	11.46953	11.18714	10.71161	4.62311	3.93711	3.38533	23.73867	19.23375	15.66568
29590	2.59218	2.60201	2.20575	14.72207	13.94399	13.14547	12.80937	8.71899	5.48039	11.46812	11.18547	10.71017	4.62147	3.93774	3.38734	23.73666	19.24220	15.66711	36.98	6.1	0.00	-2.04	0.01725	0.01196	0.01514	0.01817	0.01880	0.01470	0.00545	0.01511	0.01998	0.01848	0.01282	0.01634	0.01701	0.01757	0.01373	0.00571	0.01605	0.02135
29750	2.59292	2.60232	2.20532	14.72822	13.94570	13.15052	12.79668	8.71704	5.48202	11.46987	11.18601	10.71106	4.61721	3.93435	3.38270	23.72281	19.23611	15.66401
29910	2.59227	2.59998	2.20916	14.72631	13.94794	13.15134	12.77984	8.71366	5.48153	11.47179	11.18592	10.71184	4.61919	3.93559	3.37991	23.74927	19.23144	15.66639
30080	2.59069	2.60215	2.20413	14.72708	13.94840	13.15071	12.80690	8.71464	5.48021	11.46877	11.18659	10.71182	4.61854	3.93717	3.38581	23.71087	19.23188	15.66716
30240	2.59197	2.60046	2.20405	14.72889	13.94712	13.15172	12.80895	8.71725	5.48310	11.47179	11.19059	10.71305	4.61782	3.93388	3.38328	23.72617	19.23255	15.66733
30410	2.59121	2.60613	2.20633	14.73154	13.95167	13.15473	12.80477	8.72007	5.48238	11.47380	11.19513	10.71699	4.61809	3.93768	3.38622	23.73373	19.23420	15.67031
30570	2.59183	2.60277	2.20367	14.73086	13.95037	13.15355	12.79770	8.71644	5.47959	11.47483	11.19519	10.71954	4.61802	3.93466	3.38606	23.72344	19.23860	15.67293
30740	2.59031	2.60449	2.20554	14.73444	13.95449	13.15596	12.79166	8.71789	5.48538	11.47802	11.19761	10.71979	4.61691	3.93314	3.38087	23.73834	19.23357	15.67165
30900	2.59298	2.60444	2.20759	14.73253	13.95441	13.15713	12.82182	8.72451	5.48321	11.47914	11.19750	10.72246	4.62113	3.93690	3.38382	23.72281	19.23647	15.67004
31070	2.59313	2.60630	2.20584	14.73044	13.94973	13.15249	12.80128	8.71710	5.48131	11.47358	11.19374	10.71843	4.61853	3.93329	3.38460	23.72848	19.22593	15.66494
31230	2.58784	2.60049	2.20720	14.72453	13.94818	13.14711	12.78172	8.71923	5.48247	11.47006	11.19036	10.71564	4.61604	3.93382	3.38444	23.73153	19.22965	15.66073	36.92	5.9	0.00	-2.04	0.01725	0.01196	0.01514	0.01817	0.01880	0.01470	0.00545	0.01511	0.01998	0.01848	0.01282	0.01634	0.01701	0.01757	0.01373	0.00571	0.01605	0.02135
31400	2.59089	2.60460	2.20786	14.72829	13.95102	13.15444	12.79329	8.72283	5.48555	11.47184	11.19099	10.71583	4.62124	3.93579	3.38521	23.72104	19.23219	15.66788
31560	2.59150	2.60219	2.20675	14.72867	13.94776	13.14927	12.80427	8.71517	5.48133	11.47121	11.18949	10.71450	4.61610	3.93426	3.38365	23.71747	19.22996	15.66286
31720	2.59091	2.60102	2.20364	14.72409	13.94507	13.14662	12.79465	8.71559	5.47769	11.46877	11.18793	10.71116	4.61905	3.93598	3.38640	23.72251	19.23254	15.66537
31890	2.59390	2.60437	2.20573	14.72969	13.94921	13.15191	12.80061	8.71551	5.48183	11.47213	11.19135	10.71329	4.62143	3.93504	3.38547	23.71098	19.22512	15.66053
32050	2.59038	2.60302	2.20706	14.72194	13.94490	13.14903	12.79729	8.71990	5.48438	11.47128	11.18828	10.71631	4.61847	3.93357	3.38082	23.72062	19.22410	15.65928
32220	2.59063	2.60336	2.20455	14.72061	13.94270	13.14497	12.80036	8.71332	5.47991	11.46955	11.18775	10.71324	4.61971	3.93397	3.38681	23.72712	19.21943	15.65811
32380	2.58869	2.59860	2.20566	14.72326	13.94239	13.14504	12.77926	8.72391	5.47761	11.46933	11.18833	10.71471	4.61692	3.93316	3.38415	23.71370	19.22183	15.65510
32550	2.59055	2.60060	2.20400	14.71966	13.94212	13.14254	12.81041	8.71398	5.47852	11.46839	11.18667	10.71574	4.61667	3.93416	3.38779	23.70930	19.22312	15.66108
32710	2.59313	2.60474	2.20670	14.72458	13.94844	13.14884	12.78699	8.71765	5.48361	11.47168	11.19054	10.71738	4.61673	3.93509	3.38297	23.72649	19.22396	15.65835
32880	2.59267	2.60234	2.20922	14.72713	13.95106	13.15058	12.80311	8.72209	5.48648	11.47211	11.19326	10.71711	4.62091	3.93622	3.38427	23.70689	19.22559	15.65974	36.98	6.3	0.00	-2.04	0.01724	0.01196	0.01514	0.01817	0.01880	0.01470	0.00545	0.01511	0.01998	0.01848	0.01282	0.01634	0.01701	0.01757	0.01373	0.00571	0.01605	0.02135
33040	2.58994	2.59853	2.20241	14.72245	13.94415	13.14524	12.81428	8.71717	5.48108	11.46710	11.18598	10.71156	4.62006	3.93482	3.38409	23.72722	19.21808	15.65631
33200	2.59179	2.60253	2.20559	14.72268	13.94131	13.14647	12.78915	8.71609	5.47864	11.46633	11.18526	10.71343	4.61992	3.93359	3.38201	23.72155	19.21786	15.65231
33370	2.58995	2.60202	2.20361	14.72099	13.94363	13.14736	12.80669	8.71586	5.48221	11.46839	11.18745	10.71360	4.61766	3.93495	3.38333	23.72554	19.21799	15.65281
33530	2.58946	2.60022	2.20393	14.71836	13.93717	13.14281	12.80184	8.71524	5.47724	11.46615	11.18374	10.71136	4.61830	3.93386	3.38247	23.71254	19.21591	15.64798
33690	2.58911	2.60600	2.20843	14.71813	13.93941	13.14445	12.81155	8.72110	5.48339	11.46686	11.18747	10.71367	4.61938	3.93481	3.38337	23.72533	19.21795	15.65319
33860	2.59029	2.60093	2.20534	14.71563	13.93538	13.13834	12.77836	8.71586	5.47809	11.46045	11.18216	10.70806	4.61457	3.93258	3.38281	23.72071	19.21324	15.64771
34020	2.59109	2.59928	2.20452	14.71452	13.93563	13.13825	12.78949	8.71617	5.47959	11.46304	11.18155	10.70964	4.61476	3.93204	3.38293	23.72113	19.21444	15.64782
34190	2.58877	2.60023	2.20492	14.71642	13.94149	13.14084	12.80082	8.71819	5.48079	11.46574	11.18573	10.71106	4.61691	3.93381	3.38225	23.70626	19.21733	15.65224
34350	2.59035	2.60293	2.20420	14.71586	13.93830	13.13844	12.81087	8.72025	5.47859	11.46136	11.18381	10.70886	4.61605	3.93253	3.38331	23.70856	19.20912	15.64760
34520	2.59099	2.60217	2.20746	14.71460	13.93662	13.13644	12.79320	8.71604	5.48079	11.46111	11.18458	10.71017	4.61889	3.93376	3.38153	23.71003	19.21521	15.65011	36.92	6.0	0.00	-2.04	0.01724	0.01196	0.01514	0.01817	0.01880	0.01470	0.00545	0.01511	0.01998	0.01848	0.01282	0.01634	0.01701	0.01757	0.01373	0.00571	0.01605	0.02135
34680	2.58904	2.60189	2.20551	14.71548	13.93859	13.13747	12.81535	8.71543	5.48407	11.46159	11.18204	10.70756	4.61640	3.93147	3.38219	23.71527	19.21277	15.64576
34850	2.58923	2.59860	2.20665	14.71448	13.93750	13.13487	12.80819	8.72424	5.48358	11.45839	11.18092	10.70571	4.61727	3.93298	3.38255	23.70857	19.20918	15.64291
35010	2.58996	2.59811	2.20275	14.71198	13.93509	13.12782	12.80725	8.71670	5.47875	11.45329	11.17623	10.70237	4.61755	3.93380	3.38184	23.69538	19.21068	15.64504
35180	2.58950	2.60085	2.20334	14.71110	13.93520	13.13204	12.80053	8.71418	5.47845	11.45681	11.17835	10.70372	4.61545	3.93047	3.37929	23.69455	19.20519	15.64021
35340	2.58926	2.60077	2.20457	14.71084	13.93863	13.13430	12.81066	8.71885	5.48288	11.45659	11.18318	10.70680	4.61742	3.93375	3.38204	23.70857	19.20940	15.64442
35510	2.58916	2.59875	2.20158	14.71409	13.93715	13.13403	12.79823	8.71003	5.47847	11.45825	11.18148	10.70586	4.61624	3.93417	3.38735	23.69748	19.21219	15.64833
35670	2.59284	2.60089	2.20421	14.71784	13.93892	13.13747	12.78325	8.71129	5.47908	11.45999	11.18309	10.70822	4.61381	3.93205	3.38204	23.71150	19.20838	15.64409
35840	2.59357	2.60225	2.20884	14.71840	13.94231	13.13761	12.81706	8.72322	5.48237	11.46155	11.18662	10.71003	4.61860	3.93458	3.38478	23.70333	19.21157	15.64453
36000	2.58996	2.60015	2.20443	14.71585	13.93824	13.13223	12.79925	8.71571	5.47967	11.45949	11.18150	10.70847	4.61803	3.93212	3.38243	23.70354	19.20359	15.64212
36170	2.58929	2.60107	2.20508	14.71394	13.93730	13.13264	12.80003	8.71665	5.47738	11.45934	11.18191	10.70765	4.61681	3.93263	3.38466	23.69235	19.20823	15.64321	36.92	6.1	0.00	-2.04	0.01724	0.01196	0.01514	0.01817	0.01880	0.01470	0.00545	0.01511	0.01998	0.01848	0.01282	0.01634	0.01701	0.01757	0.01373	0.00571	0.01605	0.02135
36330	2.58723	2.60078	2.20489	14.71516	13.93932	13.13495	12.79756	8.71257	5.48022	11.45983	11.18372	10.70733	4.61737	3.93130	3.38113	23.70763	19.20694	15.64123
36490	2.59018	2.60156	2.20518	14.71433	13.94086	13.13476	12.78063	8.71463	5.48065	11.45720	11.18285	10.70861	4.61570	3.93365	3.38105	23.70449	19.20224	15.64104
36660	2.59029	2.60122	2.20182	14.71227	13.93584	13.13092	12.78267	8.71270	5.47914	11.45693	11.18244	10.70524	4.61365	3.93269	3.38436	23.69507	19.20238	15.63989
36820	2.58965	2.60262	2.20681	14.71352	13.93344	13.12904	12.78599	8.72011	5.48157	11.45493	11.17898	10.70209	4.61339	3.93460	3.38069	23.68587	19.19675	15.63430
36990	2.59225	2.60088	2.20766	14.71317	13.93584	13.13142	12.80369	8.72609	5.48502	11.45587	11.18099	10.70334	4.61853	3.93608	3.38608	23.70637	19.20388	15.64005
37150	2.59167	2.60152	2.20569	14.70951	13.93204	13.13027	12.79475	8.71652	5.48090	11.45334	11.17733	10.70190	4.61539	3.92965	3.38300	23.69967	19.19812	15.63364
37320	2.59038	2.60111	2.20370	14.70905	13.93294	13.12717	12.80190	8.71349	5.48218	11.45603	11.17858	10.70342	4.61762	3.93516	3.38472	23.69779	19.20180	15.63932
37480	2.59386	2.60475	2.20747	14.71248	13.93843	13.13125	12.79585	8.71977	5.48379	11.45852	11.18407	10.70847	4.61761	3.93399	3.38546	23.68128	19.20047	15.63823
37650	2.59222	2.60183	2.20588	14.71326	13.93850	13.13516	12.80369	8.72357	5.48542	11.45926	11.18535	10.70854	4.61817	3.93098	3.38221	23.69298	19.20486	15.64036
37810	2.59064	2.59768	2.20596	14.71558	13.93930	13.13292	12.80861	8.71344	5.47985	11.45760	11.18252	10.70550	4.61689	3.93329	3.38080	23.69517	19.20288	15.64155	36.92	6.1	0.00	-2.04	0.01724	0.01196	0.01514	0.01818	0.01880	0.01470	0.00545	0.01511	0.01998	0.01848	0.01282	0.01634	0.01701	0.01757	0.01373	0.00571	0.01605	0.02135
37970	2.58987	2.60139	2.20506	14.71368	13.93831	13.13323	12.80247	8.71721	5.47996	11.45596	11.18359	10.70607	4.61439	3.93220	3.38044	23.70878	19.20333	15.63768
38140	2.58978	2.59912	2.20412	14.71169	13.93152	13.12930	12.80971	8.71571	5.47768	11.45273	11.18357	10.70678	4.61390	3.93372	3.38182	23.69768	19.20279	15.64008
38300	2.59193	2.60416	2.20646	14.71489	13.93860	13.13304	12.80801	8.72333	5.48106	11.45490	11.18540	10.70768	4.61607	3.93245	3.38270	23.70480	19.19858	15.63915
38470	2.59186	2.60229	2.20448	14.71658	13.93868	13.13234	12.79064	8.72031	5.48325	11.45391	11.18533	10.70607	4.61609	3.93130	3.38492	23.69037	19.19757	15.63801
38630	2.58912	2.60003	2.20345	14.71484	13.93930	13.13282	12.79158	8.71921	5.48078	11.45412	11.18254	10.70749	4.61579	3.93285	3.38399	23.68869	19.19974	15.63889
38800	2.59184	2.59998	2.20310	14.71429	13.94002	13.13441	12.82106	8.71237	5.48265	11.45792	11.18703	10.70815	4.61382	3.93010	3.38269	23.68869	19.20080	15.63920
38960	2.58864	2.60176	2.20760	14.71426	13.93899	13.13486	12.78698	8.71579	5.48269	11.45795	11.18788	10.70948	4.61589	3.93295	3.37986	23.69747	19.19987	15.63632
39130	2.59163	2.60220	2.20539	14.71141	13.93545	13.13182	12.80034	8.72205	5.48260	11.45731	11.18728	10.70870	4.61471	3.93269	3.38347	23.67783	19.19779	15.63641
39290	2.59174	2.60268	2.20638	14.71498	13.93893	13.13551	12.82123	8.71681	5.47999	11.46143	11.19059	10.71278	4.61435	3.93239	3.38149	23.68556	19.19761	15.63808
39460	2.59089	2.60227	2.20616	14.71571	13.93979	13.13827	12.82252	8.71918	5.48296	11.46295	11.19195	10.71532	4.61238	3.93250	3.38132	23.70982	19.20387	15.64243	36.92	6.2	0.00	-2.04	0.01724	0.01196	0.01514	0.01818	0.01880	0.01470	0.00545	0.01511	0.01998	0.01848	0.01282	0.01634	0.01701	0.01757	0.01373	0.00571	0.01605	0.02135
39620	2.58917	2.60172	2.20636	14.71608	13.93876	13.13606	12.80342	8.71750	5.47687	11.45843	11.18851	10.71059	4.61461	3.93574	3.38270	23.70773	19.21083	15.64628
39790	2.58980	2.60051	2.20645	14.72095	13.94415	13.13942	12.79474	8.72191	5.47938	11.46208	11.19070	10.71353	4.61435	3.93150	3.38388	23.69099	19.20684	15.64621
39950	2.59133	2.60003	2.20695	14.71965	13.94409	13.13978	12.79057	8.71287	5.48041	11.46365	11.19331	10.71545	4.61674	3.93234	3.38169	23.69329	19.20586	15.64314
40120	2.59158	2.60066	2.20676	14.72083	13.94617	13.14101	12.79695	8.72196	5.48329	11.46523	11.19210	10.71619	4.61609	3.93528	3.38391	23.71506	19.20675	15.64419
40280	2.58952	2.60012	2.20441	14.72137	13.94185	13.14014	12.79550	8.72160	5.48492	11.46208	11.19110	10.71410	4.61816	3.93485	3.38655	23.69915	19.20741	15.64691
40450	2.59188	2.60476	2.20721	14.72104	13.94491	13.14146	12.81604	8.71504	5.48155	11.46547	11.19441	10.71406	4.61854	3.93785	3.38869	23.70585	19.21189	15.65276
40610	2.59558	2.60383	2.20995	14.72371	13.94755	13.14653	12.81928	8.72247	5.48333	11.46889	11.19584	10.71772	4.62140	3.93439	3.38549	23.71317	19.21327	15.64867
40780	2.59145	2.60030	2.20719	14.71970	13.94207	13.14103	12.80913	8.71759	5.48116	11.46287	11.19014	10.71337	4.61581	3.93297	3.38027	23.71611	19.20542	15.64278
40940	2.58888	2.60162	2.20640	14.71761	13.93969	13.14170	12.78997	8.71791	5.48090	11.46208	11.18918	10.71301	4.61897	3.93294	3.38290	23.68640	19.20466	15.64160
41110	2.59083	2.59926	2.20705	14.71462	13.93892	13.13879	12.80381	8.72188	5.48046	11.46183	11.18947	10.71423	4.61725	3.93452	3.38572	23.69131	19.20671	15.64087	36.92	6.1	0.00	-2.04	0.01724	0.01196	0.01514	0.01818	0.01880	0.01470	0.00545	0.01511	0.01998	0.01848	0.01282	0.01634	0.01701	0.01757	0.01373	0.00571	0.01606	0.02135
41270	2.59182	2.60284	2.20579	14.71186	13.93806	13.13689	12.81558	8.72688	5.48307	11.46333	11.19088	10.71553	4.61807	3.93428	3.38511	23.69633	19.20419	15.64386
41430	2.59231	2.60267	2.20749	14.71284	13.93912	13.13956	12.82206	8.71721	5.48375	11.46716	11.18970	10.71732	4.61966	3.93704	3.38667	23.69026	19.20578	15.64381
41600	2.59174	2.60239	2.20793	14.71270	13.93892	13.13843	12.79351	8.72054	5.48121	11.46825	11.19229	10.71759	4.61793	3.93406	3.38628	23.70804	19.21057	15.65102
41760	2.59566	2.60359	2.20871	14.71647	13.94279	13.14494	12.79794	8.72527	5.48493	11.46962	11.19631	10.72166	4.61829	3.93151	3.38469	23.69382	19.21186	15.64724
41930	2.59375	2.60333	2.21021	14.71916	13.94587	13.14852	12.81336	8.73068	5.48932	11.47462	11.19710	10.72401	4.61956	3.93753	3.38771	23.70930	19.21519	15.65040
42090	2.59228	2.60274	2.20751	14.71638	13.94491	13.14508	12.80151	8.71869	5.48548	11.47234	11.19629	10.72328	4.61813	3.93260	3.38716	23.70888	19.21226	15.64526
42260	2.59340	2.60299	2.20668	14.71736	13.94190	13.14374	12.80134	8.72185	5.48237	11.47283	11.20016	10.72430	4.61824	3.93485	3.38725	23.71244	19.21186	15.64977
42420	2.59341	2.60221	2.20860	14.71796	13.94301	13.14540	12.80586	8.72098	5.48650	11.47033	11.19949	10.72248	4.61791	3.93712	3.38547	23.72041	19.21354	15.64974
42590	2.59344	2.60402	2.21086	14.71933	13.94474	13.14410	12.82113	8.72724	5.48729	11.47208	11.19813	10.72355	4.62027	3.93606	3.38763	23.69152	19.20507	15.64592
42750	2.59477	2.60403	2.20931	14.71573	13.94050	13.14587	12.81236	8.72221	5.48381	11.47061	11.19624	10.72383	4.62203	3.93543	3.38653	23.70626	19.21413	15.65162	36.92	6.1	0.00	-2.04	0.01724	0.01196	0.01514	0.01818	0.01880	0.01470	0.00545	0.01511	0.01998	0.01848	0.01282	0.01634	0.01701	0.01757	0.01373	0.00571	0.01606	0.02135
42920	2.59522	2.60436	2.20942	14.71872	13.94178	13.14570	12.81006	8.72717	5.48682	11.47218	11.19844	10.72550	4.62170	3.93659	3.38594	23.71359	19.21578	15.65232
43080	2.59359	2.60761	2.20842	14.71962	13.94583	13.14626	12.80282	8.72594	5.48783	11.47311	11.20360	10.72796	4.62047	3.93780	3.38660	23.70187	19.21893	15.65241
43250	2.59117	2.60505	2.21027	14.71821	13.94618	13.14753	12.81066	8.73081	5.49144	11.47472	11.20215	10.72719	4.62368	3.93888	3.38843	23.70208	19.21644	15.65096
43410	2.59202	2.60475	2.20715	14.71825	13.94229	13.14378	12.80290	8.72231	5.48542	11.47184	11.19526	10.72315	4.62103	3.93473	3.38990	23.70898	19.21555	15.65100
43580	2.59381	2.60434	2.20840	14.71672	13.94176	13.14268	12.81339	8.72282	5.48395	11.47346	11.19515	10.72248	4.62050	3.93524	3.38377	23.71234	19.20815	15.64593
43740	2.59550	2.60273	2.20870	14.71397	13.94283	13.14503	12.80333	8.72655	5.48759	11.47622	11.19799	10.72789	4.61914	3.93541	3.38570	23.72219	19.21564	15.64896
43900	2.59322	2.60482	2.20824	14.71774	13.94308	13.14373	12.80640	8.72102	5.48472	11.47579	11.19942	10.72807	4.62115	3.93924	3.38709	23.72344	19.21840	15.65448
44070	2.59283	2.60364	2.20840	14.72050	13.94806	13.14710	12.80691	8.72426	5.48832	11.47909	11.19942	10.72846	4.62032	3.93493	3.38769	23.70396	19.21804	15.65340
44230	2.59742	2.60617	2.20937	14.71951	13.94579	13.14739	12.81108	8.72403	5.48697	11.47809	11.20034	10.72787	4.62063	3.93835	3.38851	23.70898	19.21422	15.65157
44400	2.59504	2.60439	2.21039	14.71871	13.94222	13.14262	12.80946	8.72459	5.48594	11.47270	11.19395	10.72332	4.62162	3.93966	3.38932	23.72219	19.21427	15.65262	36.92	6.1	0.00	-2.04	0.01724	0.01196	0.01514	0.01818	0.01880	0.01470	0.00545	0.01511	0.01998	0.01848	0.01282	0.01634	0.01701	0.01757	0.01373	0.00571	0.01605	0.02135
44560	2.59520	2.60628	2.20973	14.71558	13.93846	13.14134	12.81962	8.72308	5.48842	11.47291	11.19504	10.72489	4.62127	3.93452	3.38557	23.70982	19.21019	15.64871
44730	2.59570	2.60498	2.20964	14.71751	13.94552	13.14860	12.80887	8.73217	5.48969	11.47803	11.19956	10.72852	4.62393	3.93753	3.39112	23.70271	19.21476	15.65203
44890	2.59638	2.60489	2.20915	14.71713	13.94089	13.14500	12.82295	8.72702	5.48773	11.47705	11.19773	10.72719	4.62099	3.93907	3.38989	23.70250	19.20975	15.64689
45060	2.59589	2.60449	2.20938	14.71350	13.93916	13.14329	12.81126	8.72512	5.48495	11.47793	11.19654	10.72679	4.62303	3.93955	3.38890	23.70710	19.21175	15.64675
45220	2.59448	2.60539	2.21095	14.71533	13.94154	13.14360	12.82090	8.72495	5.48730	11.47865	11.19468	10.72811	4.61880	3.93650	3.38806	23.71904	19.21241	15.64471
45390	2.59592	2.60716	2.20972	14.71574	13.94064	13.14243	12.80861	8.72751	5.48884	11.47763	11.19471	10.72711	4.62293	3.93839	3.38927	23.71234	19.20993	15.64772
45550	2.59594	2.60469	2.20952	14.71516	13.94066	13.14269	12.80614	8.72802	5.48905	11.47654	11.19473	10.72628	4.62433	3.94067	3.38851	23.70585	19.20926	15.64423
45720	2.59702	2.60741	2.21048	14.71646	13.94095	13.14130	12.81006	8.72796	5.48822	11.47670	11.19417	10.72633	4.62339	3.94190	3.39064	23.71338	19.21427	15.64691
45880	2.59960	2.60766	2.21144	14.71862	13.94319	13.14257	12.82218	8.73065	5.49132	11.47545	11.19549	10.72622	4.62391	3.94079	3.38963	23.70961	19.21343	15.64645
46050	2.59586	2.60638	2.21111	14.71628	13.94157	13.14350	12.79964	8.73105	5.48872	11.47384	11.19339	10.72432	4.62462	3.93993	3.38966	23.69946	19.20514	15.64232	36.92	6.2	0.00	-2.04	0.01724	0.01196	0.01514	0.01818	0.01880	0.01470	0.00545	0.01511	0.01998	0.01848	0.01282	0.01634	0.01701	0.01757	0.01373	0.00571	0.01605	0.02135
46210	2.59686	2.60596	2.20843	14.71155	13.93775	13.13798	12.78874	8.72172	5.48592	11.47079	11.18992	10.72048	4.62317	3.94114	3.38943	23.71139	19.20554	15.64234
46370	2.59829	2.60773	2.21346	14.71229	13.93725	13.13498	12.80177	8.72800	5.48896	11.46853	11.18934	10.72078	4.62260	3.93636	3.38717	23.69737	19.20231	15.64102
46540	2.59444	2.60787	2.20849	14.70905	13.93672	13.13310	12.81174	8.72988	5.49024	11.46333	11.18494	10.71660	4.62539	3.94156	3.39472	23.70783	19.21002	15.64921
46700	2.59857	2.60995	2.21165	14.71681	13.94262	13.13966	12.81243	8.72806	5.48854	11.46935	11.19030	10.72155	4.62572	3.93974	3.38816	23.71391	19.20714	15.64458
46870	2.59685	2.60688	2.21098	14.71399	13.94085	13.13819	12.80390	8.72941	5.49004	11.47018	11.19254	10.72162	4.62424	3.93995	3.38970	23.69591	19.20984	15.64262
47030	2.59389	2.60545	2.20997	14.71408	13.93725	13.13502	12.80705	8.72721	5.48492	11.46713	11.19122	10.71993	4.62748	3.94494	3.39137	23.71726	19.20927	15.64287
47200	2.59969	2.60846	2.21251	14.71948	13.94240	13.13574	12.79777	8.72942	5.49195	11.47106	11.19395	10.72246	4.62375	3.94273	3.38870	23.71265	19.20364	15.64155
47360	2.59952	2.60958	2.21454	14.71756	13.94487	13.14271	12.83403	8.73280	5.49751	11.47333	11.19553	10.72527	4.62981	3.94253	3.39312	23.71579	19.20510	15.64080
47530	2.60051	2.60884	2.21452	14.71603	13.94186	13.13985	12.81755	8.72961	5.48955	11.47034	11.19352	10.72254	4.62657	3.94399	3.39186	23.71035	19.20594	15.64572
47690	2.59897	2.60796	2.21366	14.71755	13.94212	13.14137	12.79492	8.72913	5.48927	11.47228	11.19474	10.72228	4.62544	3.93868	3.38860	23.70940	19.20570	15.64158	36.92	6.3	0.00	-2.04	0.01724	0.01196	0.01514	0.01818	0.01880	0.01470	0.00545	0.01511	0.01998	0.01848	0.01282	0.01634	0.01701	0.01757	0.01373	0.00571	0.01605	0.02135
47850	2.59488	2.60456	2.20831	14.71537	13.94197	13.13817	12.80216	8.72207	5.48654	11.47085	11.19336	10.72324	4.62270	3.94285	3.39384	23.70333	19.21288	15.64839
48020	2.59992	2.60928	2.21436	14.72054	13.94642	13.14221	12.80046	8.73028	5.49210	11.47669	11.19944	10.72625	4.62447	3.93904	3.38886	23.69915	19.21089	15.64613
48180	2.59919	2.61050	2.21212	14.72033	13.94481	13.14596	12.82417	8.73166	5.49749	11.47555	11.19843	10.72671	4.62634	3.94286	3.39323	23.71338	19.21208	15.64690
48350	2.59968	2.60915	2.21168	14.71894	13.94296	13.14062	12.80693	8.72782	5.48851	11.47138	11.19591	10.72225	4.62601	3.94201	3.39058	23.71548	19.20610	15.64277
48510	2.60142	2.60967	2.21290	14.71685	13.94346	13.13945	12.81094	8.73625	5.49329	11.47426	11.19503	10.72460	4.62854	3.94441	3.39175	23.69768	19.20694	15.64222
48670	2.60028	2.60755	2.21113	14.71502	13.93981	13.13546	12.81111	8.73110	5.49164	11.46972	11.19007	10.72066	4.62916	3.94563	3.39406	23.71611	19.20650	15.64406
48840	2.59932	2.61159	2.21435	14.71574	13.94142	13.13832	12.82664	8.73670	5.49473	11.47188	11.19369	10.72148	4.62929	3.94419	3.39287	23.72407	19.21137	15.64472
49000	2.59964	2.61095	2.21334	14.71852	13.94389	13.14187	12.81776	8.73511	5.49389	11.47127	11.19459	10.72315	4.63124	3.94675	3.39498	23.71925	19.21173	15.64589
49170	2.60178	2.61089	2.21323	14.71980	13.94589	13.14110	12.82468	8.73612	5.49536	11.47616	11.19747	10.72538	4.62772	3.94453	3.39415	23.71401	19.20592	15.64483
49340	2.60199	2.61247	2.21875	14.71671	13.94730	13.14901	12.81863	8.74052	5.50019	11.47941	11.20304	10.73155	4.62907	3.94694	3.39392	23.71789	19.21884	15.65173	36.92	6.1	0.00	-2.04	0.01724	0.01196	0.01514	0.01818	0.01880	0.01470	0.00545	0.01511	0.01998	0.01848	0.01282	0.01634	0.01701	0.01757	0.01373	0.00571	0.01605	0.02135
49500	2.60110	2.61482	2.21318	14.72204	13.94687	13.14418	12.82674	8.73438	5.49489	11.47739	11.20091	10.72913	4.62754	3.94550	3.39368	23.70197	19.21156	15.64733
49660	2.59971	2.61117	2.21388	14.71910	13.94537	13.14221	12.81948	8.73819	5.49640	11.47431	11.19706	10.72673	4.62868	3.94542	3.39316	23.72166	19.21720	15.65181
49830	2.59930	2.60970	2.21390	14.72112	13.95017	13.14622	12.82930	8.73535	5.49611	11.47685	11.19937	10.73036	4.63164	3.94612	3.39313	23.71579	19.21471	15.64815
49990	2.60091	2.61253	2.21409	14.72582	13.94856	13.14639	12.83075	8.74162	5.49910	11.47934	11.20360	10.73127	4.63159	3.94639	3.39374	23.71810	19.21595	15.64790
50160	2.60215	2.61120	2.21502	14.72040	13.94432	13.14425	12.81129	8.73630	5.49368	11.47546	11.19901	10.72749	4.63122	3.94888	3.39662	23.70176	19.21502	15.64933
50320	2.60144	2.61388	2.21580	14.72060	13.94438	13.14223	12.81590	8.73702	5.49738	11.47522	11.19575	10.72659	4.63072	3.94691	3.39342	23.70804	19.20890	15.64138
50490	2.60477	2.61434	2.21626	14.71588	13.94286	13.14367	12.82196	8.74401	5.50149	11.47824	11.19834	10.72883	4.63440	3.94810	3.39668	23.70218	19.20606	15.64413
50650	2.60314	2.61231	2.21361	14.71499	13.93953	13.14269	12.83315	8.73775	5.49764	11.47356	11.19460	10.72529	4.63303	3.94619	3.39447	23.71014	19.20628	15.64261
50820	2.60027	2.61034	2.21427	14.71360	13.93975	13.14009	12.81436	8.73857	5.49592	11.47280	11.19507	10.72637	4.63066	3.94549	3.39398	23.71621	19.20562	15.64443
50980	2.60109	2.61300	2.21444	14.71458	13.94171	13.14186	12.79897	8.73664	5.49664	11.47624	11.19720	10.72783	4.63016	3.94634	3.39637	23.70344	19.20942	15.64257	36.92	6.1	0.00	-2.04	0.01724	0.01196	0.01514	0.01818	0.01880	0.01470	0.00545	0.01511	0.01998	0.01848	0.01282	0.01634	0.01701	0.01757	0.01373	0.00571	0.01605	0.02135
51150	2.60275	2.61378	2.21555	14.71620	13.94286	13.14234	12.81850	8.74111	5.49778	11.47571	11.19859	10.72824	4.63089	3.94631	3.39531	23.70030	19.20520	15.64352
51310	2.60351	2.61249	2.21648	14.71456	13.94381	13.14383	12.82951	8.73943	5.50241	11.47546	11.19966	10.72847	4.63128	3.94707	3.39601	23.71328	19.20862	15.64321
51480	2.60532	2.61387	2.21615	14.71892	13.94544	13.14431	12.82832	8.73709	5.50267	11.47600	11.19930	10.73186	4.63273	3.94706	3.39779	23.71768	19.21141	15.64802
51640	2.60369	2.61319	2.21585	14.72047	13.94803	13.14528	12.83806	8.74310	5.50168	11.47952	11.20425	10.73114	4.63247	3.94752	3.39627	23.69382	19.20844	15.64881
51810	2.60034	2.61090	2.21742	14.72047	13.94854	13.14881	12.81039	8.74039	5.50282	11.47873	11.20373	10.73294	4.63422	3.94583	3.39608	23.71936	19.21075	15.64843
51970	2.60404	2.61364	2.21633	14.72151	13.94583	13.14624	12.82097	8.73770	5.49715	11.47790	11.20273	10.73116	4.63460	3.94446	3.39640	23.71600	19.21456	15.64949
52140	2.60344	2.61179	2.21660	14.72124	13.94941	13.14859	12.80749	8.74030	5.50106	11.47849	11.20384	10.73243	4.63361	3.94714	3.39662	23.69256	19.20809	15.64740
52300	2.59963	2.61011	2.21445	14.71706	13.94624	13.14737	12.83439	8.74451	5.50515	11.47981	11.20304	10.73052	4.63426	3.94867	3.39678	23.70281	19.21381	15.64811
52470	2.60161	2.60922	2.21269	14.71838	13.94484	13.14456	12.82857	8.73666	5.49949	11.47749	11.19935	10.72874	4.63243	3.94813	3.39656	23.71894	19.21172	15.65008
52630	2.60448	2.61262	2.21493	14.72218	13.94755	13.14848	12.81984	8.74058	5.50224	11.48006	11.20273	10.73332	4.63058	3.94668	3.39446	23.70208	19.21445	15.64953	36.92	6.0	0.00	-2.04	0.01724	0.01196	0.01514	0.01818	0.01880	0.01471	0.00545	0.01511	0.01998	0.01848	0.01282	0.01634	0.01701	0.01757	0.01373	0.00571	0.01606	0.02135
52790	2.60298	2.61247	2.21729	14.72460	13.94980	13.15138	12.82770	8.74274	5.50163	11.48342	11.20653	10.73747	4.63371	3.94617	3.39637	23.71422	19.21734	15.65558
52960	2.59994	2.61070	2.21487	14.72492	13.95163	13.15227	12.82599	8.73893	5.50024	11.48297	11.20810	10.73631	4.63515	3.94955	3.39623	23.70982	19.21951	15.65672
53120	2.60532	2.61237	2.21681	14.72627	13.95352	13.15564	12.82658	8.73696	5.50086	11.48624	11.20833	10.73758	4.63511	3.94642	3.39648	23.68974	19.21494	15.65386
53290	2.60264	2.61328	2.21609	14.72499	13.95103	13.15588	12.83060	8.73690	5.50141	11.48681	11.20936	10.73981	4.63228	3.94529	3.39536	23.72135	19.21809	15.65808
53450	2.60083	2.61041	2.21346	14.72497	13.94996	13.15230	12.80713	8.74149	5.49606	11.48200	11.20304	10.73601	4.62934	3.94324	3.39281	23.71548	19.21042	15.64949
53610	2.60092	2.61341	2.21456	14.72330	13.95115	13.15475	12.83077	8.74353	5.50190	11.48316	11.20703	10.73610	4.63523	3.94983	3.39686	23.71087	19.21521	15.64991
53780	2.60161	2.61237	2.21525	14.71928	13.94619	13.14787	12.82257	8.74171	5.49517	11.47873	11.20172	10.73455	4.63351	3.94609	3.39737	23.71380	19.20687	15.64672
53940	2.60163	2.61120	2.21452	14.71938	13.94465	13.14494	12.81694	8.73908	5.50020	11.47910	11.20197	10.73375	4.63049	3.94479	3.39196	23.69559	19.20270	15.64452
54110	2.59957	2.60950	2.21347	14.71472	13.93928	13.14225	12.82180	8.73377	5.49625	11.47127	11.19523	10.72607	4.63613	3.95343	3.39933	23.69580	19.20953	15.65076
54270	2.60109	2.61056	2.21463	14.71818	13.94805	13.14797	12.81997	8.74422	5.50075	11.47547	11.20301	10.73122	4.63392	3.94815	3.39743	23.69967	19.20732	15.64452	36.92	6.0	0.00	-2.04	0.01724	0.01196	0.01513	0.01818	0.01880	0.01471	0.00545	0.01511	0.01998	0.01848	0.01282	0.01634	0.01701	0.01756	0.01373	0.00571	0.01606	0.02135
54440	2.60400	2.61569	2.21798	14.72203	13.94881	13.14759	12.83005	8.74046	5.50385	11.48080	11.20632	10.73478	4.63606	3.94806	3.39889	23.69737	19.21011	15.64823
54600	2.60359	2.61396	2.21735	14.71974	13.94727	13.14557	12.81212	8.73902	5.50184	11.47893	11.20484	10.73515	4.63583	3.94942	3.39627	23.69821	19.20905	15.64803
