WetView ver 7.1	07-20-2019	15:43:28
AC9 Absorption and Attenuation Meter
00000311		; Serial number
2	; structure version number
Reserved
0.000000	0.000000		; Depth calibration
19200			; Baud rate
0.100000			; Path length (meters)
23			; number of temperature calibration bins
				12.61517	13.44096	14.46844	15.49904	16.50682	17.50108	18.49752	19.51783	20.49177	21.49009	22.48286	23.50673	24.54012	25.54812	26.49986	27.49321	28.50960	29.48671	30.47471	31.49432	32.50437	33.48679	34.49133	; temperature bins
a650	Blue	18.61587		0.01156	0.01096	0.01010	0.00930	0.00851	0.00774	0.00661	0.00573	0.00499	0.00402	0.00285	0.00203	0.00096	0.00000	-0.00110	-0.00152	-0.00210	-0.00247	-0.00259	-0.00317	-0.00346	-0.00380	-0.00403		; offset and temperature correction info
a676	Green	18.78942		0.00964	0.00899	0.00863	0.00813	0.00730	0.00639	0.00545	0.00448	0.00385	0.00301	0.00233	0.00165	0.00046	0.00000	-0.00106	-0.00167	-0.00251	-0.00280	-0.00316	-0.00329	-0.00377	-0.00392	-0.00441		; offset and temperature correction info
a715	Brown	18.59217		0.01171	0.01109	0.01043	0.00975	0.00878	0.00789	0.00685	0.00572	0.00469	0.00356	0.00255	0.00160	0.00061	0.00000	-0.00063	-0.00113	-0.00152	-0.00183	-0.00226	-0.00293	-0.00364	-0.00404	-0.00473		; offset and temperature correction info
c510	Red	18.18396		-0.00549	-0.00480	-0.00383	-0.00272	-0.00202	-0.00118	-0.00044	-0.00038	-0.00015	-0.00021	0.00013	0.00007	-0.00007	0.00000	-0.00007	-0.00065	-0.00045	-0.00018	0.00007	0.00039	-0.00001	-0.00002	-0.00045		; offset and temperature correction info
c532	Magenta	18.26528		-0.00721	-0.00645	-0.00581	-0.00518	-0.00465	-0.00345	-0.00281	-0.00270	-0.00182	-0.00141	-0.00108	-0.00072	-0.00022	0.00000	0.00044	0.00030	0.00031	-0.00006	-0.00052	-0.00089	-0.00142	-0.00149	-0.00154		; offset and temperature correction info
c555	Black	18.37125		-0.00430	-0.00419	-0.00381	-0.00319	-0.00286	-0.00254	-0.00205	-0.00196	-0.00138	-0.00137	-0.00067	-0.00051	-0.00030	0.00000	0.00067	0.00087	0.00057	0.00027	-0.00015	-0.00089	-0.00127	-0.00137	-0.00150		; offset and temperature correction info
a412	LtBlue	15.33566		-0.06011	-0.05567	-0.05012	-0.04441	-0.03922	-0.03412	-0.02941	-0.02503	-0.02049	-0.01588	-0.01121	-0.00784	-0.00311	0.00000	0.00273	0.00611	0.00757	0.00871	0.01066	0.01299	0.01539	0.01781	0.02175		; offset and temperature correction info
a440	LtGreen	16.05925		-0.01380	-0.01214	-0.01039	-0.00858	-0.00690	-0.00532	-0.00426	-0.00322	-0.00230	-0.00158	-0.00055	0.00006	0.00001	0.00000	0.00017	0.00016	-0.00094	-0.00222	-0.00363	-0.00486	-0.00567	-0.00651	-0.00782		; offset and temperature correction info
a488	Yellow	16.82827		0.00255	0.00293	0.00331	0.00354	0.00373	0.00378	0.00363	0.00350	0.00291	0.00225	0.00215	0.00142	0.00099	0.00000	-0.00092	-0.00169	-0.00295	-0.00396	-0.00479	-0.00542	-0.00582	-0.00604	-0.00663		; offset and temperature correction info
c650	Blue	18.49287		-0.00570	-0.00516	-0.00456	-0.00403	-0.00346	-0.00232	-0.00132	-0.00122	-0.00073	-0.00066	-0.00035	-0.00016	0.00003	0.00000	0.00044	0.00078	0.00108	0.00057	0.00040	-0.00042	-0.00033	-0.00029	-0.00034		; offset and temperature correction info
c676	Green	18.50570		0.00299	0.00293	0.00287	0.00293	0.00278	0.00294	0.00317	0.00251	0.00243	0.00215	0.00139	0.00123	0.00068	0.00000	-0.00041	-0.00106	-0.00205	-0.00268	-0.00325	-0.00413	-0.00495	-0.00610	-0.00674		; offset and temperature correction info
c715	Brown	17.88888		0.00826	0.00812	0.00773	0.00790	0.00766	0.00758	0.00753	0.00650	0.00571	0.00461	0.00359	0.00222	0.00101	0.00000	-0.00146	-0.00284	-0.00385	-0.00448	-0.00463	-0.00513	-0.00623	-0.00715	-0.00838		; offset and temperature correction info
a510	Red	17.18050		0.00353	0.00364	0.00354	0.00361	0.00381	0.00381	0.00356	0.00332	0.00277	0.00229	0.00176	0.00116	0.00036	0.00000	-0.00014	-0.00069	-0.00088	-0.00147	-0.00150	-0.00129	-0.00120	-0.00134	-0.00091		; offset and temperature correction info
a532	Magenta	17.40228		0.00550	0.00548	0.00526	0.00479	0.00464	0.00422	0.00393	0.00328	0.00253	0.00212	0.00136	0.00085	0.00039	0.00000	-0.00059	-0.00146	-0.00188	-0.00262	-0.00330	-0.00393	-0.00491	-0.00540	-0.00605		; offset and temperature correction info
a555	Black	17.72308		0.00849	0.00832	0.00800	0.00760	0.00724	0.00655	0.00580	0.00495	0.00435	0.00347	0.00252	0.00153	0.00049	0.00000	-0.00050	-0.00155	-0.00214	-0.00306	-0.00350	-0.00411	-0.00470	-0.00539	-0.00570		; offset and temperature correction info
c412	LtBlue	16.72802		-0.05949	-0.05458	-0.04744	-0.04134	-0.03547	-0.03064	-0.02511	-0.02047	-0.01574	-0.01163	-0.00761	-0.00442	-0.00204	0.00000	0.00100	0.00051	-0.00043	-0.00239	-0.00475	-0.00629	-0.00827	-0.00955	-0.01337		; offset and temperature correction info
c440	LtGreen	17.42637		-0.02723	-0.02503	-0.02216	-0.01930	-0.01691	-0.01394	-0.01125	-0.00926	-0.00732	-0.00582	-0.00401	-0.00226	-0.00093	0.00000	0.00082	0.00123	0.00133	0.00097	0.00038	-0.00003	-0.00022	-0.00023	-0.00125		; offset and temperature correction info
c488	Yellow	18.03666		-0.00640	-0.00554	-0.00465	-0.00357	-0.00276	-0.00154	-0.00067	-0.00031	-0.00014	-0.00012	0.00046	0.00032	0.00020	0.00000	0.00001	-0.00024	-0.00060	-0.00084	-0.00126	-0.00180	-0.00276	-0.00304	-0.00427		; offset and temperature correction info
0.003500	0.004000	0.015000	0.020000	0.015000	0.020000	2500.000000	2000.000000	1000.000000	; maxANoise	maxCNoise	maxADifference	maxCDifference	minACounts	minCCounts	minRCounts	maxTempSdev	maxDepthSdev
0			; auxilliary capabilities
1			; acquisition binsize
0	3.75811	3.50484	3.09086	14.07142	12.65827	11.49780	25.21632	16.60835	10.05738	9.17193	8.89198	8.40243	8.24253	6.86577	5.87377	31.50385	22.67901	15.89764	33.08	6.1	0.00	-2.04	0.01738	0.01202	0.01521	0.01817	0.01883	0.01472	0.00547	0.01518	0.02014	0.01857	0.01286	0.01639	0.01711	0.01770	0.01382	0.00568	0.01599	0.02137
160	3.75603	3.50495	3.09102	14.07139	12.65659	11.49709	25.22247	16.59787	10.05315	9.17091	8.89175	8.40353	8.24578	6.86568	5.87926	31.48823	22.67283	15.89665
330	3.75500	3.50355	3.08498	14.07285	12.65739	11.49874	25.22893	16.59762	10.05040	9.17161	8.89074	8.40145	8.24339	6.86337	5.87455	31.54207	22.67485	15.89400
490	3.75944	3.51253	3.09524	14.07429	12.65983	11.49994	25.27157	16.59932	10.05513	9.17425	8.89467	8.40498	8.25003	6.87395	5.87845	31.51120	22.68027	15.89710
660	3.76229	3.50777	3.09108	14.07413	12.65937	11.49681	25.26067	16.59211	10.05262	9.16987	8.89198	8.40179	8.24687	6.87381	5.88223	31.48823	22.67220	15.89791
820	3.76321	3.51351	3.09616	14.07618	12.66024	11.49774	25.30433	16.60599	10.05354	9.17195	8.89455	8.40300	8.24622	6.86721	5.88034	31.50615	22.67037	15.89415
980	3.76258	3.51016	3.09694	14.07383	12.65973	11.49776	25.23274	16.60732	10.06207	9.17286	8.89407	8.40390	8.25325	6.87119	5.88453	31.53285	22.67850	15.89701
1150	3.76108	3.51332	3.09878	14.07674	12.66011	11.49719	25.23773	16.60367	10.05829	9.17320	8.89558	8.40387	8.25103	6.87434	5.88504	31.50247	22.68090	15.90102
1310	3.76522	3.51512	3.09895	14.07918	12.66152	11.50086	25.18530	16.60541	10.05980	9.17464	8.89806	8.40626	8.25328	6.87525	5.88373	31.52317	22.68203	15.90095
1480	3.76584	3.51549	3.09844	14.07983	12.66431	11.50357	25.16429	16.59572	10.05985	9.17369	8.89744	8.40578	8.25201	6.87455	5.88406	31.51350	22.68014	15.90226
1640	3.76792	3.51608	3.10247	14.07892	12.66342	11.50074	25.24249	16.61090	10.06512	9.17356	8.89819	8.40606	8.25942	6.87891	5.89174	31.49292	22.67933	15.90089	33.02	6.1	0.00	-2.04	0.01739	0.01203	0.01521	0.01816	0.01882	0.01472	0.00547	0.01519	0.02015	0.01857	0.01286	0.01639	0.01712	0.01770	0.01383	0.00568	0.01598	0.02136
1810	3.76699	3.51619	3.10087	14.07846	12.66214	11.50133	25.29136	16.61331	10.06505	9.17341	8.89661	8.40557	8.25744	6.88219	5.89640	31.53480	22.67870	15.90414
1970	3.77162	3.52129	3.10320	14.08539	12.66595	11.50361	25.28694	16.61439	10.06689	9.17686	8.89899	8.40757	8.25904	6.87984	5.89191	31.52190	22.68034	15.90188
2140	3.76876	3.51941	3.10659	14.08654	12.67004	11.50720	25.26366	16.60933	10.06846	9.17842	8.90207	8.41158	8.25989	6.88322	5.89386	31.50625	22.67624	15.90511
2300	3.76944	3.51843	3.10335	14.08586	12.66615	11.50251	25.22136	16.61119	10.06318	9.17477	8.90131	8.40882	8.26044	6.87985	5.89265	31.55835	22.68349	15.90560
2470	3.76855	3.51781	3.10378	14.08663	12.66791	11.50274	25.19589	16.60146	10.06565	9.17517	8.90120	8.40885	8.25794	6.87952	5.89536	31.52742	22.67630	15.89979
2630	3.76695	3.52027	3.10552	14.08432	12.66537	11.50419	25.25277	16.61774	10.06467	9.17457	8.90118	8.40754	8.25760	6.87731	5.89017	31.50763	22.67851	15.90337
2790	3.77023	3.51959	3.10295	14.08225	12.66476	11.50034	25.28517	16.60738	10.06667	9.17261	8.89775	8.40577	8.26105	6.88208	5.89340	31.52282	22.67372	15.89977
2960	3.76957	3.52194	3.10661	14.08456	12.66436	11.50309	25.25630	16.60933	10.06747	9.17414	8.90088	8.40620	8.25736	6.87979	5.89598	31.49706	22.67781	15.90085
3120	3.77172	3.52385	3.10898	14.08449	12.66610	11.50294	25.20350	16.61779	10.06989	9.17417	8.90060	8.40820	8.25921	6.88343	5.89207	31.50533	22.67617	15.90152
3290	3.77776	3.52858	3.11121	14.08446	12.66502	11.50110	25.29258	16.62357	10.07331	9.17342	8.90128	8.40745	8.26734	6.88612	5.90024	31.48387	22.67712	15.90257	33.02	6.1	0.00	-2.04	0.01739	0.01203	0.01522	0.01816	0.01882	0.01472	0.00548	0.01519	0.02015	0.01856	0.01286	0.01639	0.01713	0.01771	0.01383	0.00568	0.01598	0.02136
3450	3.77593	3.52924	3.11077	14.08566	12.66613	11.50202	25.23607	16.61718	10.07566	9.17280	8.90060	8.40762	8.26689	6.88648	5.89943	31.51328	22.67574	15.89755
3620	3.77752	3.52886	3.11456	14.08557	12.66604	11.50314	25.31533	16.63108	10.07828	9.17368	8.89981	8.40769	8.26926	6.89062	5.90209	31.48020	22.67340	15.90090
3780	3.77898	3.52711	3.11147	14.08285	12.66163	11.49843	25.22669	16.61947	10.07483	9.16808	8.89706	8.40453	8.26808	6.88989	5.90164	31.48203	22.67271	15.89917
3950	3.77874	3.53004	3.11374	14.08431	12.66334	11.50171	25.24723	16.62146	10.07838	9.17080	8.89934	8.40793	8.26808	6.89001	5.90513	31.50500	22.67391	15.90126
4110	3.77950	3.53016	3.11381	14.08527	12.66555	11.50055	25.18806	16.62005	10.07789	9.17071	8.90179	8.40750	8.26956	6.88936	5.90506	31.49811	22.67517	15.90122
4280	3.77784	3.53146	3.11407	14.08599	12.66512	11.50234	25.22229	16.62843	10.07455	9.17133	8.89956	8.40749	8.26678	6.88765	5.90056	31.48295	22.66975	15.89743
4440	3.77604	3.52657	3.11133	14.08361	12.66535	11.50391	25.25399	16.62245	10.07789	9.17297	8.90344	8.40816	8.27290	6.89110	5.90331	31.52111	22.67466	15.90074
4610	3.78006	3.53104	3.11373	14.08594	12.66551	11.50081	25.20355	16.62590	10.07375	9.16871	8.89821	8.40590	8.26751	6.89128	5.90105	31.50960	22.66673	15.89856
4770	3.77685	3.53082	3.11498	14.08403	12.66369	11.50000	25.24224	16.61694	10.07676	9.17065	8.89998	8.40643	8.27299	6.89242	5.90331	31.50868	22.66786	15.89829
4940	3.78206	3.53604	3.11969	14.08297	12.66190	11.50030	25.22679	16.62786	10.08118	9.16825	8.90001	8.40645	8.27322	6.89597	5.90540	31.54175	22.66679	15.89694	33.08	6.0	0.00	-2.04	0.01739	0.01203	0.01522	0.01816	0.01882	0.01472	0.00548	0.01519	0.02016	0.01856	0.01286	0.01639	0.01713	0.01771	0.01383	0.00567	0.01598	0.02136
5100	3.78105	3.53507	3.11831	14.08510	12.66516	11.50242	25.25526	16.63101	10.08065	9.16864	8.90032	8.40606	8.27483	6.89572	5.90897	31.49660	22.66641	15.89628
5270	3.78205	3.53369	3.11840	14.08292	12.66158	11.49865	25.26349	16.61674	10.07953	9.16520	8.89888	8.40365	8.27646	6.89733	5.90893	31.47824	22.66988	15.89984
5430	3.78430	3.53835	3.12195	14.08582	12.66476	11.50060	25.22620	16.63570	10.08621	9.16737	8.89971	8.40616	8.27735	6.89769	5.91113	31.51040	22.66597	15.89921
5600	3.78606	3.53814	3.12302	14.08658	12.66333	11.50013	25.28175	16.63296	10.08657	9.16830	8.90165	8.40610	8.27552	6.89415	5.90692	31.50442	22.66635	15.89336
5770	3.78753	3.53772	3.12266	14.08634	12.66413	11.49918	25.30595	16.63670	10.09101	9.16922	8.90101	8.40767	8.27690	6.89999	5.91253	31.49522	22.66667	15.89993
5930	3.78230	3.53404	3.11949	14.08456	12.66205	11.50072	25.25879	16.64522	10.08344	9.16746	8.89978	8.40510	8.28288	6.90334	5.91376	31.50534	22.67057	15.90097
6100	3.78822	3.54093	3.12344	14.08835	12.66532	11.50125	25.28352	16.62811	10.08772	9.16964	8.90189	8.40723	8.27905	6.89863	5.91316	31.48099	22.66654	15.89655
6260	3.78803	3.54128	3.12804	14.08536	12.66451	11.50187	25.25173	16.63795	10.09091	9.16847	8.90053	8.40648	8.28406	6.90221	5.91336	31.48696	22.66679	15.89651
6430	3.78811	3.54086	3.12431	14.08523	12.66492	11.50129	25.28293	16.63217	10.09590	9.17031	8.90143	8.40743	8.28168	6.90105	5.91395	31.49476	22.66276	15.89572
6590	3.78930	3.54094	3.12266	14.08331	12.66002	11.49918	25.25773	16.63105	10.09047	9.16673	8.89902	8.40460	8.28427	6.90143	5.91886	31.45178	22.66813	15.89743	33.08	6.0	0.00	-2.04	0.01739	0.01203	0.01522	0.01816	0.01882	0.01471	0.00548	0.01520	0.02016	0.01856	0.01286	0.01638	0.01713	0.01772	0.01383	0.00567	0.01598	0.02136
6760	3.79136	3.54437	3.12914	14.08434	12.66364	11.50026	25.23131	16.64542	10.09341	9.16915	8.90169	8.40597	8.28986	6.90604	5.92185	31.52803	22.67222	15.89605
6920	3.79348	3.54304	3.12737	14.08351	12.66353	11.49906	25.28835	16.63795	10.09493	9.16902	8.90077	8.40595	8.28654	6.90586	5.91953	31.48983	22.66630	15.89763
7090	3.79019	3.54361	3.12838	14.08386	12.66374	11.50134	25.24510	16.63575	10.09538	9.16968	8.90130	8.40688	8.28514	6.90456	5.91888	31.53772	22.66372	15.89630
7250	3.78906	3.54035	3.12817	14.08248	12.66293	11.50301	25.29395	16.64530	10.10005	9.17207	8.90444	8.41015	8.28684	6.90799	5.92031	31.50776	22.66725	15.89808
7420	3.79161	3.54289	3.12836	14.08584	12.66324	11.50136	25.27244	16.65653	10.09633	9.16934	8.90356	8.40814	8.28591	6.90557	5.91778	31.53310	22.66580	15.89907
7580	3.78700	3.54057	3.12808	14.08575	12.66230	11.49918	25.29307	16.64119	10.09516	9.16740	8.90024	8.40609	8.28504	6.90654	5.91861	31.51144	22.66699	15.89934
7750	3.79352	3.54183	3.12775	14.08540	12.66436	11.49995	25.27479	16.64318	10.09912	9.16841	8.90161	8.40750	8.28357	6.90253	5.91701	31.50684	22.66202	15.89592
7910	3.79231	3.54525	3.12997	14.08619	12.66322	11.50281	25.25450	16.65291	10.09639	9.17006	8.90251	8.41004	8.28684	6.91237	5.91876	31.46780	22.67254	15.89858
8080	3.79148	3.54289	3.12727	14.08621	12.66157	11.50128	25.21695	16.64821	10.09357	9.16721	8.90136	8.40642	8.28746	6.90874	5.92070	31.48386	22.66737	15.89756
8240	3.79207	3.54274	3.12909	14.08231	12.65961	11.49806	25.26691	16.64173	10.09824	9.16542	8.90017	8.40616	8.29084	6.90700	5.92115	31.53659	22.67088	15.89540	33.02	6.1	0.00	-2.04	0.01740	0.01203	0.01522	0.01816	0.01882	0.01471	0.00548	0.01520	0.02016	0.01856	0.01286	0.01638	0.01714	0.01772	0.01384	0.00567	0.01598	0.02135
8410	3.79191	3.54453	3.12977	14.08363	12.66086	11.49954	25.24077	16.64838	10.09726	9.16660	8.90334	8.40692	8.28661	6.90874	5.92117	31.49698	22.66225	15.89441
8570	3.79232	3.54317	3.13043	14.08207	12.66070	11.50016	25.26191	16.65112	10.09825	9.16665	8.90097	8.40642	8.28861	6.91004	5.91954	31.48641	22.66351	15.89639
8740	3.79277	3.54538	3.12693	14.08039	12.65813	11.49661	25.24135	16.63749	10.09420	9.16317	8.89921	8.40328	8.28857	6.90996	5.92287	31.49560	22.66654	15.89642
8900	3.79179	3.54562	3.13136	14.08202	12.65985	11.49767	25.17322	16.64385	10.09515	9.16446	8.89941	8.40405	8.28421	6.91062	5.92244	31.49744	22.65747	15.89335
9070	3.79452	3.54736	3.13109	14.08113	12.65939	11.49722	25.27427	16.64593	10.09795	9.16411	8.89826	8.40283	8.29204	6.91310	5.92322	31.50480	22.66578	15.89538
9230	3.79587	3.54953	3.13291	14.08241	12.65941	11.49787	25.27339	16.64439	10.09972	9.16322	8.89863	8.40302	8.28667	6.91041	5.92180	31.49468	22.65873	15.89320
9400	3.79607	3.54994	3.13540	14.07980	12.65900	11.49910	25.21879	16.65432	10.10073	9.16474	8.89957	8.40338	8.29429	6.91321	5.92424	31.49836	22.66439	15.89331
9560	3.79766	3.54510	3.13186	14.07982	12.65643	11.49529	25.28811	16.65129	10.09751	9.16072	8.89781	8.40025	8.29010	6.91243	5.92703	31.50664	22.65948	15.89480
9730	3.80089	3.54923	3.13494	14.08091	12.65777	11.49588	25.28694	16.64231	10.10098	9.16272	8.89778	8.40253	8.29319	6.91067	5.92102	31.47127	22.65816	15.89115
9890	3.79533	3.54741	3.13288	14.07774	12.65648	11.49515	25.34540	16.65400	10.10427	9.16256	8.89671	8.40200	8.29252	6.91129	5.92599	31.46764	22.65905	15.89328	33.08	6.2	0.00	-2.04	0.01740	0.01203	0.01522	0.01816	0.01882	0.01471	0.00548	0.01520	0.02017	0.01856	0.01286	0.01638	0.01714	0.01772	0.01384	0.00567	0.01598	0.02135
10050	3.79555	3.54414	3.13163	14.07681	12.65342	11.49086	25.30074	16.64988	10.09936	9.15865	8.89267	8.39860	8.29006	6.91269	5.92365	31.49105	22.65854	15.89065
10220	3.79704	3.55002	3.13285	14.07676	12.65509	11.49226	25.27039	16.64868	10.10374	9.15920	8.89296	8.39834	8.29038	6.91063	5.92541	31.48370	22.65395	15.88844
10380	3.79536	3.55045	3.13301	14.07428	12.65174	11.49122	25.30340	16.64934	10.09696	9.15774	8.89200	8.39644	8.29170	6.91430	5.92767	31.50346	22.66572	15.89218
10550	3.80055	3.55449	3.13544	14.07519	12.65480	11.49375	25.30045	16.64747	10.10319	9.16046	8.89374	8.40009	8.29023	6.91143	5.92680	31.49289	22.66320	15.88824
10710	3.80084	3.55168	3.13729	14.07681	12.65485	11.49505	25.26892	16.65346	10.10744	9.16221	8.89641	8.40260	8.29674	6.91394	5.92578	31.51543	22.66068	15.89054
10880	3.79863	3.55039	3.13484	14.07615	12.65149	11.49059	25.29248	16.64115	10.10258	9.15750	8.89184	8.39673	8.29203	6.91261	5.93116	31.49335	22.66245	15.89333
11040	3.79953	3.55137	3.13621	14.07639	12.65379	11.49261	25.29219	16.65188	10.09995	9.15916	8.89374	8.39853	8.29170	6.91329	5.92517	31.52557	22.65691	15.88759
11200	3.79675	3.54986	3.13600	14.07604	12.65299	11.49145	25.34540	16.65092	10.10025	9.15970	8.89411	8.39839	8.29019	6.90953	5.92635	31.49472	22.65798	15.88840
11370	3.79834	3.54938	3.13507	14.07247	12.65236	11.48878	25.32556	16.64701	10.09975	9.15605	8.89259	8.39630	8.29418	6.91203	5.92683	31.47635	22.65684	15.88707
11530	3.79918	3.55241	3.13907	14.07196	12.65117	11.48996	25.30757	16.64348	10.10020	9.15680	8.89164	8.39759	8.29044	6.91388	5.92691	31.51661	22.65859	15.88351	33.02	6.2	0.00	-2.04	0.01740	0.01203	0.01522	0.01816	0.01882	0.01471	0.00548	0.01520	0.02017	0.01856	0.01286	0.01638	0.01714	0.01772	0.01384	0.00567	0.01598	0.02135
11700	3.79796	3.55023	3.13422	14.06994	12.64755	11.48568	25.28958	16.64443	10.09809	9.15394	8.88896	8.39457	8.29028	6.91714	5.92991	31.51247	22.65972	15.88977
11860	3.80165	3.55508	3.13989	14.07440	12.65277	11.49075	25.26397	16.64589	10.10173	9.15760	8.89247	8.39890	8.29513	6.91678	5.92621	31.49820	22.65727	15.88430
12030	3.79964	3.55130	3.14034	14.07179	12.64930	11.48898	25.26426	16.64202	10.10605	9.15642	8.89080	8.39547	8.29369	6.91775	5.92891	31.48258	22.65148	15.88488
12190	3.80142	3.55331	3.13913	14.07068	12.65039	11.48739	25.23491	16.65516	10.10170	9.15534	8.88949	8.39520	8.29655	6.91506	5.92906	31.47386	22.65072	15.88443
12360	3.79818	3.55094	3.13790	14.06667	12.64954	11.48621	25.25339	16.65075	10.10228	9.15456	8.88893	8.39460	8.29316	6.91405	5.92485	31.46973	22.64820	15.88027
12520	3.79945	3.55057	3.13422	14.06902	12.64535	11.48204	25.25691	16.65004	10.09598	9.15122	8.88620	8.39177	8.29607	6.91401	5.92736	31.50142	22.64714	15.88214
12690	3.79925	3.55072	3.13680	14.06850	12.64584	11.48418	25.25456	16.65279	10.10033	9.15160	8.88569	8.39251	8.29266	6.91044	5.92726	31.48717	22.64399	15.87789
12850	3.79660	3.55233	3.13605	14.06498	12.64602	11.48314	25.26426	16.65528	10.10555	9.15230	8.88668	8.39299	8.29341	6.91411	5.92674	31.48855	22.64701	15.88023
13020	3.80078	3.55056	3.13708	14.06513	12.64241	11.47915	25.29783	16.65042	10.09798	9.14883	8.88496	8.39033	8.29088	6.91511	5.92998	31.48717	22.64682	15.87980
13180	3.80026	3.55200	3.13794	14.06592	12.64535	11.48219	25.24941	16.64614	10.10496	9.14944	8.88518	8.39144	8.29438	6.91286	5.92680	31.45003	22.64419	15.87742	33.02	6.0	0.00	-2.04	0.01740	0.01203	0.01522	0.01816	0.01881	0.01471	0.00548	0.01520	0.02017	0.01856	0.01286	0.01638	0.01714	0.01772	0.01384	0.00567	0.01598	0.02135
13340	3.80005	3.55528	3.14000	14.06475	12.64510	11.48245	25.28293	16.65948	10.10451	9.14908	8.88442	8.39172	8.29371	6.91326	5.92727	31.48120	22.63885	15.87549
13510	3.80286	3.55418	3.14002	14.05938	12.64004	11.47667	25.27763	16.65379	10.10400	9.14404	8.87898	8.38622	8.29199	6.91487	5.92876	31.46606	22.64005	15.87637
13670	3.80526	3.55735	3.14188	14.06227	12.64161	11.47743	25.29648	16.65578	10.10377	9.14705	8.88258	8.38885	8.29419	6.91283	5.93016	31.47202	22.64218	15.87450
13840	3.80244	3.55516	3.14279	14.06286	12.64445	11.47895	25.25793	16.64880	10.10676	9.15064	8.88612	8.39292	8.29668	6.91706	5.93020	31.50556	22.64633	15.87720
14000	3.80397	3.55519	3.13945	14.06240	12.64156	11.47714	25.34941	16.65428	10.10255	9.14708	8.88210	8.38802	8.29658	6.91301	5.93055	31.49084	22.63810	15.87520
14170	3.80050	3.55194	3.13836	14.05988	12.63732	11.47645	25.23416	16.65803	10.09786	9.14358	8.87992	8.38651	8.29415	6.91372	5.93112	31.49820	22.64080	15.87030
14330	3.80098	3.55657	3.14142	14.06027	12.64111	11.47852	25.21396	16.65840	10.10914	9.14519	8.88206	8.38864	8.29858	6.91811	5.93247	31.51385	22.63910	15.87470
14500	3.80251	3.55737	3.13952	14.05994	12.63712	11.47428	25.28293	16.65158	10.10499	9.14302	8.87755	8.38389	8.29737	6.91711	5.93440	31.47936	22.64426	15.87324
14660	3.80264	3.55553	3.13995	14.06014	12.63715	11.47432	25.29354	16.64610	10.10612	9.14270	8.87900	8.38507	8.29585	6.91290	5.92630	31.46698	22.62981	15.86542
14820	3.80212	3.55585	3.14239	14.05774	12.63709	11.47377	25.31035	16.65268	10.10756	9.14200	8.87926	8.38404	8.29785	6.91721	5.93085	31.44591	22.63378	15.86849	33.02	6.1	0.00	-2.04	0.01740	0.01204	0.01522	0.01816	0.01882	0.01471	0.00548	0.01520	0.02017	0.01856	0.01286	0.01638	0.01714	0.01772	0.01384	0.00567	0.01597	0.02135
14990	3.80159	3.55439	3.14295	14.05491	12.63344	11.47062	25.31183	16.64981	10.10453	9.14215	8.87722	8.38296	8.29802	6.91969	5.93508	31.47340	22.63522	15.87339
15150	3.80493	3.55742	3.14489	14.05967	12.63909	11.47578	25.32484	16.65484	10.11018	9.14528	8.88088	8.38696	8.29868	6.92071	5.93338	31.45552	22.63158	15.86899
15320	3.80319	3.55843	3.14352	14.05554	12.63591	11.47297	25.29589	16.65663	10.10923	9.14317	8.87786	8.38277	8.29925	6.91947	5.93029	31.42626	22.63547	15.86649
15480	3.80453	3.56019	3.14244	14.05033	12.62958	11.46704	25.28499	16.65164	10.10207	9.13799	8.87476	8.37883	8.29470	6.91488	5.92960	31.44728	22.62317	15.85908
15640	3.79893	3.55853	3.14344	14.04518	12.62921	11.46607	25.25587	16.65667	10.10667	9.13828	8.87317	8.37996	8.29570	6.91673	5.93510	31.46835	22.62800	15.85978
15810	3.80359	3.55889	3.14226	14.04501	12.62823	11.46304	25.27557	16.65276	10.10711	9.13533	8.87149	8.37700	8.30005	6.92017	5.93136	31.48166	22.62932	15.86034
15970	3.80438	3.55774	3.14408	14.04785	12.62856	11.46440	25.25000	16.64574	10.10739	9.13503	8.86983	8.37766	8.29816	6.91843	5.93643	31.46423	22.62970	15.86018
16140	3.80255	3.55598	3.14234	14.04393	12.62639	11.46187	25.27174	16.65355	10.10644	9.13414	8.86921	8.37477	8.30066	6.92375	5.93700	31.44225	22.62819	15.86443
16300	3.80639	3.56304	3.14742	14.05079	12.62960	11.46503	25.29413	16.65829	10.11106	9.13669	8.87197	8.37849	8.30048	6.91939	5.93302	31.49314	22.62430	15.85872
16470	3.80578	3.56236	3.14886	14.05086	12.62862	11.46717	25.26429	16.65553	10.11133	9.13825	8.87366	8.38164	8.29822	6.92175	5.93819	31.48748	22.62509	15.86243	33.02	6.3	0.00	-2.04	0.01740	0.01204	0.01522	0.01815	0.01881	0.01471	0.00548	0.01520	0.02017	0.01856	0.01286	0.01638	0.01714	0.01772	0.01384	0.00567	0.01597	0.02135
16630	3.80672	3.55746	3.14533	14.04467	12.62621	11.46201	25.31026	16.66181	10.10914	9.13386	8.86995	8.37570	8.30222	6.92432	5.93756	31.47692	22.62773	15.86061
16790	3.80828	3.55943	3.14434	14.04678	12.62653	11.46475	25.21093	16.65332	10.11412	9.13591	8.86958	8.37851	8.30528	6.91946	5.93164	31.46225	22.62352	15.85805
16960	3.80948	3.55947	3.14670	14.04539	12.62668	11.46355	25.30938	16.65553	10.11276	9.13589	8.86958	8.37670	8.30089	6.91899	5.93671	31.47738	22.62421	15.85947
17120	3.80699	3.55828	3.14568	14.04469	12.62547	11.46038	25.30465	16.65440	10.10795	9.13188	8.86721	8.37482	8.29891	6.91917	5.93242	31.43937	22.62064	15.85457
17280	3.80830	3.55748	3.14713	14.04322	12.62628	11.46310	25.29433	16.66172	10.11133	9.13489	8.86788	8.37591	8.29968	6.92408	5.93753	31.43662	22.62051	15.85697
17450	3.80559	3.55870	3.14719	14.04170	12.62424	11.46034	25.34992	16.64904	10.10842	9.13199	8.86708	8.37497	8.29951	6.91785	5.93332	31.44485	22.61876	15.85401
17610	3.80761	3.56441	3.15134	14.04489	12.62756	11.46542	25.31115	16.66172	10.11543	9.13596	8.86783	8.37763	8.30011	6.91957	5.93525	31.45584	22.62120	15.85727
17780	3.80867	3.56366	3.14773	14.04276	12.62448	11.46225	25.30052	16.65632	10.11072	9.13406	8.86731	8.37412	8.30079	6.92043	5.93292	31.46729	22.62472	15.85803
17940	3.80635	3.55950	3.14627	14.04068	12.62381	11.45933	25.32001	16.65266	10.10760	9.13192	8.86403	8.37282	8.29797	6.91851	5.93418	31.43891	22.61876	15.85222
18100	3.80478	3.55713	3.14327	14.03855	12.62045	11.45602	25.23691	16.65300	10.10700	9.12949	8.86228	8.37082	8.29985	6.92066	5.93898	31.48431	22.62042	15.85672	33.02	6.1	0.00	-2.04	0.01740	0.01204	0.01522	0.01815	0.01881	0.01471	0.00548	0.01520	0.02017	0.01856	0.01286	0.01638	0.01714	0.01772	0.01384	0.00567	0.01597	0.02135
18270	3.80985	3.55975	3.14506	14.04224	12.62509	11.45876	25.33856	16.65862	10.11499	9.13135	8.86224	8.37195	8.30280	6.92380	5.93828	31.47192	22.62538	15.85805
18430	3.80985	3.56551	3.14910	14.04402	12.62675	11.46093	25.26215	16.66944	10.11976	9.13405	8.86667	8.37532	8.30410	6.92144	5.93831	31.46000	22.62199	15.85699
18600	3.80962	3.55838	3.14931	14.04126	12.62486	11.46203	25.31933	16.66220	10.10939	9.13474	8.86563	8.37515	8.30137	6.92432	5.93627	31.47513	22.62551	15.85403
18760	3.80801	3.55924	3.14754	14.03992	12.62254	11.45647	25.27420	16.66399	10.10924	9.13003	8.86235	8.37138	8.29984	6.91812	5.93747	31.42707	22.61629	15.85011
18920	3.80610	3.55933	3.15018	14.03842	12.62331	11.46022	25.32731	16.66557	10.12071	9.13416	8.86887	8.37504	8.30241	6.92326	5.93951	31.48844	22.62061	15.85446
19090	3.81029	3.55702	3.14581	14.03940	12.62263	11.45551	25.24746	16.66062	10.11250	9.12998	8.86305	8.37117	8.30530	6.92356	5.94141	31.46320	22.61999	15.85594
19250	3.81049	3.56498	3.15195	14.04322	12.62461	11.45799	25.27597	16.66453	10.11492	9.13302	8.86491	8.37379	8.30506	6.92229	5.93766	31.45313	22.61842	15.85466
19420	3.81026	3.56292	3.15038	14.04081	12.62252	11.45724	25.32406	16.65712	10.11600	9.13240	8.86496	8.37268	8.30330	6.92039	5.93743	31.45267	22.61729	15.85239
19580	3.80906	3.56200	3.14865	14.03953	12.62263	11.45631	25.28127	16.65679	10.11400	9.13020	8.86281	8.37170	8.29985	6.91737	5.93517	31.48247	22.61679	15.84981
19750	3.81038	3.56389	3.14875	14.04087	12.62482	11.45947	25.33636	16.66842	10.11595	9.13372	8.86613	8.37421	8.30590	6.92669	5.94255	31.45295	22.62210	15.85374	33.02	6.2	0.00	-2.04	0.01740	0.01204	0.01522	0.01816	0.01881	0.01471	0.00548	0.01520	0.02017	0.01856	0.01286	0.01638	0.01714	0.01772	0.01384	0.00567	0.01598	0.02135
19910	3.80997	3.56142	3.15107	14.04058	12.62273	11.45661	25.29028	16.66167	10.10996	9.12960	8.86283	8.37176	8.30185	6.92608	5.94258	31.46211	22.61872	15.85583
20070	3.81321	3.56566	3.15180	14.04412	12.62433	11.45661	25.25527	16.66434	10.11515	9.13100	8.86354	8.37278	8.29935	6.92281	5.94180	31.43694	22.61746	15.85078
20240	3.81384	3.56832	3.15257	14.04041	12.62375	11.45983	25.30473	16.66663	10.11923	9.13226	8.86484	8.37280	8.30560	6.92801	5.93978	31.47311	22.62392	15.84980
20400	3.81136	3.56631	3.15156	14.03922	12.62051	11.45353	25.27555	16.66471	10.11349	9.12771	8.86186	8.36894	8.30530	6.92597	5.94368	31.47082	22.62085	15.85141
20570	3.81446	3.56686	3.15276	14.03876	12.61968	11.45470	25.26056	16.66234	10.11615	9.12736	8.86195	8.36937	8.30404	6.92533	5.93981	31.44929	22.62028	15.84912
20730	3.81225	3.56642	3.15316	14.03919	12.62022	11.45458	25.31477	16.66663	10.11858	9.12718	8.86283	8.36950	8.30350	6.92450	5.94257	31.46211	22.61665	15.84702
20900	3.81133	3.56792	3.15114	14.03705	12.61698	11.45267	25.32334	16.66992	10.12026	9.12668	8.86260	8.36849	8.30669	6.92680	5.94711	31.45615	22.62279	15.85029
21060	3.81377	3.56507	3.15212	14.03919	12.61932	11.45468	25.31122	16.67321	10.12121	9.12944	8.86267	8.36971	8.30590	6.92623	5.94109	31.46165	22.61721	15.84661
21230	3.81328	3.56899	3.15780	14.04093	12.62323	11.45673	25.28822	16.67908	10.12157	9.13061	8.86304	8.37190	8.30955	6.92641	5.94677	31.46394	22.61828	15.85094
21390	3.81636	3.56996	3.15453	14.03851	12.61965	11.45300	25.29649	16.66206	10.12190	9.12796	8.86043	8.37133	8.30653	6.93063	5.94388	31.46768	22.61656	15.85072	33.08	6.1	0.00	-2.04	0.01740	0.01204	0.01523	0.01816	0.01881	0.01471	0.00548	0.01520	0.02017	0.01856	0.01286	0.01638	0.01714	0.01772	0.01384	0.00567	0.01597	0.02135
21560	3.81304	3.56614	3.15390	14.03895	12.62102	11.45465	25.27498	16.67130	10.12292	9.13089	8.86274	8.37021	8.30499	6.92718	5.94404	31.47135	22.61757	15.84769
21720	3.81325	3.56596	3.15534	14.03734	12.62034	11.45390	25.30445	16.66181	10.11786	9.12816	8.86166	8.37033	8.30658	6.93023	5.94546	31.46814	22.61431	15.85059
21890	3.81575	3.56878	3.15498	14.03778	12.62021	11.45418	25.34497	16.67101	10.12194	9.12897	8.86085	8.36857	8.30880	6.92732	5.94443	31.43747	22.61449	15.84778
22050	3.81322	3.56865	3.15577	14.03628	12.61956	11.45420	25.27940	16.66934	10.12179	9.13191	8.86355	8.37071	8.31170	6.93078	5.94847	31.44204	22.61675	15.84976
22220	3.81712	3.56694	3.15534	14.03973	12.62061	11.45414	25.38119	16.66435	10.12214	9.13047	8.86129	8.37036	8.30871	6.92931	5.94664	31.45851	22.61869	15.85128
22380	3.81554	3.56694	3.15446	14.03760	12.62056	11.45651	25.27410	16.66468	10.12082	9.13136	8.86348	8.37230	8.31206	6.93153	5.94832	31.46218	22.62045	15.85310
22550	3.81750	3.56887	3.15636	14.04140	12.62290	11.45726	25.24120	16.67076	10.12199	9.13433	8.86467	8.37269	8.31062	6.92859	5.94767	31.45439	22.61631	15.85020
22710	3.81651	3.57146	3.15598	14.04157	12.62369	11.45883	25.29148	16.66601	10.12267	9.13467	8.86702	8.37522	8.31185	6.93053	5.94497	31.45119	22.62020	15.85260
22880	3.81439	3.56667	3.15477	14.04008	12.61895	11.45507	25.30918	16.66152	10.11928	9.13190	8.86292	8.37057	8.30913	6.93457	5.94843	31.46447	22.61888	15.85420
23040	3.81857	3.57023	3.15747	14.04171	12.62218	11.45701	25.32764	16.66675	10.12157	9.13240	8.86496	8.37255	8.30735	6.93139	5.94925	31.44802	22.61951	15.85279	33.02	6.0	0.00	-2.04	0.01740	0.01204	0.01523	0.01816	0.01882	0.01471	0.00548	0.01521	0.02017	0.01856	0.01286	0.01638	0.01714	0.01773	0.01384	0.00567	0.01597	0.02135
23200	3.81794	3.57227	3.15833	14.04009	12.62229	11.45785	25.29928	16.66645	10.12321	9.13304	8.86374	8.37328	8.30982	6.93270	5.94715	31.45534	22.61468	15.85064
23370	3.81695	3.56836	3.15594	14.03657	12.61876	11.45417	25.24808	16.66005	10.11684	9.12856	8.86111	8.36997	8.31231	6.93351	5.95012	31.43522	22.61600	15.85254
23530	3.81914	3.57110	3.15773	14.03805	12.61960	11.45322	25.28984	16.66716	10.11808	9.12958	8.86243	8.36984	8.30995	6.92984	5.94378	31.44710	22.61299	15.84644
23700	3.81443	3.57133	3.15845	14.03768	12.62088	11.45734	25.32527	16.67303	10.12036	9.13080	8.86418	8.36928	8.31267	6.93219	5.94919	31.44299	22.61612	15.84869
23860	3.81631	3.56710	3.15579	14.03581	12.62000	11.45576	25.34303	16.66292	10.11977	9.12957	8.86328	8.36975	8.30712	6.93152	5.94575	31.45488	22.60998	15.84676
24030	3.81702	3.57174	3.15747	14.03883	12.62234	11.45876	25.25161	16.67566	10.12528	9.13318	8.86544	8.37103	8.31402	6.93464	5.94308	31.49572	22.61462	15.85104
24190	3.81648	3.57010	3.15720	14.03627	12.61991	11.45428	25.25073	16.66654	10.11948	9.12882	8.86086	8.36733	8.30809	6.92864	5.94430	31.47230	22.60898	15.85044
24350	3.81708	3.56558	3.15547	14.03874	12.61850	11.45259	25.26159	16.66304	10.12061	9.12719	8.85966	8.36741	8.31075	6.93074	5.94779	31.46267	22.61794	15.84965
24520	3.81589	3.57066	3.15870	14.03902	12.62102	11.45468	25.33503	16.66533	10.11870	9.12959	8.86058	8.36765	8.30871	6.93082	5.94766	31.43842	22.61155	15.84882
24680	3.81639	3.57122	3.15928	14.03420	12.61765	11.45537	25.21661	16.66661	10.12135	9.12835	8.86286	8.36810	8.31086	6.92836	5.94863	31.45305	22.61351	15.84853	32.97	6.2	0.00	-2.04	0.01740	0.01204	0.01523	0.01816	0.01881	0.01471	0.00548	0.01521	0.02017	0.01856	0.01286	0.01638	0.01714	0.01773	0.01384	0.00567	0.01597	0.02135
24850	3.81925	3.57109	3.15781	14.03504	12.61720	11.45149	25.29709	16.66025	10.12156	9.12779	8.86001	8.36620	8.30986	6.93213	5.94846	31.45809	22.61358	15.85210
25010	3.81888	3.57300	3.15978	14.03775	12.62032	11.45451	25.28589	16.67432	10.12220	9.12846	8.85983	8.36761	8.30920	6.93179	5.94548	31.44893	22.61765	15.84653
25180	3.82068	3.57458	3.15888	14.03606	12.62046	11.45405	25.29207	16.66703	10.12440	9.12998	8.86095	8.36912	8.30887	6.93323	5.94855	31.43704	22.61126	15.84837
25340	3.81880	3.57174	3.15741	14.03268	12.61663	11.45084	25.31686	16.66911	10.12004	9.12726	8.86005	8.36554	8.31183	6.93578	5.94984	31.43933	22.61019	15.85097
25510	3.82085	3.57281	3.16021	14.03682	12.62005	11.45313	25.26176	16.67144	10.12055	9.13019	8.86059	8.36876	8.30907	6.92976	5.94667	31.44939	22.61145	15.84631
25670	3.82039	3.57563	3.16293	14.03986	12.62275	11.45906	25.31007	16.67036	10.12931	9.13335	8.86611	8.37276	8.31470	6.93191	5.94944	31.44298	22.61834	15.85317
25840	3.82040	3.57172	3.16051	14.03927	12.62178	11.45638	25.29974	16.67590	10.12250	9.13119	8.86425	8.37149	8.31476	6.92964	5.94909	31.42927	22.61445	15.85084
26000	3.81780	3.57408	3.16102	14.03851	12.62093	11.45445	25.30623	16.67194	10.12322	9.13027	8.86098	8.37053	8.31009	6.93068	5.94779	31.42745	22.61633	15.85010
26170	3.82061	3.57435	3.16194	14.03816	12.62102	11.45563	25.32869	16.67061	10.12487	9.13012	8.86197	8.36978	8.31069	6.93061	5.95161	31.41558	22.61953	15.84853
26330	3.81783	3.57555	3.16062	14.03936	12.62090	11.45639	25.25416	16.68159	10.12833	9.13230	8.86344	8.37060	8.31303	6.93275	5.94864	31.46246	22.61745	15.85040	33.02	6.1	0.00	-2.04	0.01740	0.01204	0.01523	0.01816	0.01882	0.01471	0.00548	0.01521	0.02017	0.01856	0.01286	0.01638	0.01714	0.01773	0.01384	0.00567	0.01597	0.02135
26500	3.81786	3.57311	3.16137	14.03866	12.62159	11.45436	25.31719	16.66818	10.12476	9.13096	8.86079	8.36938	8.31544	6.93482	5.95307	31.48815	22.61921	15.85318
26660	3.81818	3.57351	3.16055	14.03849	12.62119	11.45606	25.27032	16.66968	10.12444	9.13118	8.86238	8.37055	8.31197	6.92976	5.94942	31.45605	22.61112	15.84782
26830	3.82066	3.57578	3.16307	14.03979	12.62321	11.45904	25.28092	16.68201	10.12568	9.13330	8.86406	8.37108	8.31588	6.93592	5.94987	31.48540	22.61795	15.85170
26990	3.82118	3.57446	3.16257	14.03780	12.61986	11.45515	25.31778	16.67743	10.12834	9.13026	8.86143	8.36990	8.31348	6.92936	5.94797	31.47163	22.61062	15.84643
27160	3.81847	3.57078	3.15902	14.03387	12.61917	11.45397	25.26738	16.67072	10.12656	9.13046	8.86125	8.36975	8.31934	6.93181	5.95040	31.44964	22.61068	15.84834
27320	3.81858	3.57462	3.16189	14.03489	12.61768	11.45176	25.28622	16.68368	10.13204	9.12882	8.86215	8.36890	8.31508	6.93354	5.94689	31.44278	22.61269	15.84888
27490	3.82268	3.57555	3.16242	14.03545	12.61791	11.45495	25.29594	16.67701	10.12739	9.12966	8.86244	8.36949	8.31474	6.93452	5.95060	31.47897	22.61269	15.84899
27650	3.82369	3.57443	3.16158	14.03619	12.61678	11.45519	25.29801	16.67251	10.13233	9.13022	8.86337	8.37035	8.31637	6.93354	5.95129	31.47025	22.61187	15.85016
27820	3.82311	3.57461	3.16155	14.03561	12.61705	11.45233	25.28946	16.67089	10.13115	9.12909	8.86118	8.36764	8.31753	6.93826	5.95215	31.47163	22.61959	15.85024
27980	3.82402	3.57711	3.16433	14.03642	12.61974	11.45545	25.27484	16.68223	10.12502	9.12917	8.86170	8.36995	8.31393	6.93507	5.94866	31.44594	22.61823	15.84762	33.02	6.0	0.00	-2.04	0.01740	0.01204	0.01523	0.01815	0.01881	0.01471	0.00548	0.01521	0.02017	0.01856	0.01286	0.01638	0.01714	0.01773	0.01384	0.00567	0.01597	0.02135
28150	3.82285	3.58103	3.16727	14.03633	12.62212	11.45789	25.28898	16.67919	10.13018	9.13111	8.86410	8.37184	8.31649	6.93642	5.94960	31.42766	22.61347	15.84968
28310	3.82117	3.57706	3.16419	14.03557	12.61766	11.45365	25.22407	16.67727	10.12470	9.12790	8.86064	8.36740	8.31756	6.93675	5.95452	31.43406	22.61566	15.85343
28470	3.82528	3.57503	3.16366	14.04010	12.62147	11.45639	25.35045	16.68206	10.12727	9.13016	8.86311	8.37019	8.31740	6.93298	5.94888	31.42081	22.61334	15.84791
28640	3.82272	3.57325	3.16100	14.03349	12.61668	11.45312	25.28691	16.67865	10.12801	9.12776	8.86031	8.36762	8.31239	6.92986	5.94892	31.43954	22.60726	15.84686
28800	3.81916	3.57157	3.15989	14.03373	12.61602	11.45050	25.33534	16.66594	10.12329	9.12532	8.85730	8.36615	8.31654	6.93730	5.95396	31.46976	22.61353	15.85148
28970	3.82524	3.57942	3.16286	14.03533	12.61908	11.45468	25.35490	16.68323	10.12600	9.12781	8.86115	8.36922	8.31310	6.93579	5.95358	31.44914	22.61334	15.84646
29130	3.82178	3.57695	3.16609	14.03557	12.61971	11.45476	25.28367	16.67177	10.13014	9.13029	8.86234	8.36930	8.32048	6.93907	5.95687	31.43771	22.60920	15.84711
29300	3.82459	3.57671	3.16563	14.03379	12.61712	11.45203	25.32617	16.68369	10.12696	9.12685	8.85976	8.36660	8.31763	6.93753	5.95394	31.43086	22.61478	15.84769
29460	3.82431	3.57717	3.16550	14.03453	12.61609	11.45172	25.30874	16.67056	10.12435	9.12520	8.85884	8.36679	8.31511	6.93312	5.95269	31.42447	22.60814	15.84729
29630	3.82608	3.57575	3.16376	14.03270	12.61614	11.45244	25.31172	16.68111	10.12949	9.12676	8.86014	8.36776	8.31677	6.93471	5.95325	31.44190	22.60903	15.84619	32.97	6.2	0.00	-2.04	0.01740	0.01204	0.01523	0.01816	0.01881	0.01471	0.00548	0.01521	0.02017	0.01856	0.01286	0.01638	0.01714	0.01772	0.01384	0.00567	0.01597	0.02135
29790	3.82587	3.57788	3.16559	14.03261	12.61252	11.45082	25.34544	16.67995	10.12694	9.12399	8.85703	8.36427	8.32008	6.93763	5.95378	31.44510	22.60627	15.84541
29950	3.82576	3.57809	3.16558	14.03240	12.61475	11.45040	25.28812	16.67557	10.13047	9.12545	8.85936	8.36491	8.31701	6.93963	5.95498	31.44921	22.60740	15.84776
30120	3.82370	3.57859	3.16592	14.03333	12.61419	11.45157	25.34070	16.67528	10.13324	9.12593	8.85970	8.36656	8.31616	6.93511	5.95288	31.45975	22.61248	15.84691
30280	3.82369	3.58135	3.16819	14.03212	12.61506	11.45188	25.31497	16.67690	10.13239	9.12725	8.86065	8.36765	8.31657	6.93696	5.95575	31.46295	22.60734	15.84749
30450	3.82605	3.57818	3.16487	14.03309	12.61338	11.45028	25.35315	16.67478	10.12686	9.12515	8.86021	8.36570	8.31958	6.94148	5.95946	31.44784	22.61379	15.84857
30610	3.82724	3.58086	3.16629	14.03396	12.61486	11.45352	25.29077	16.68295	10.13149	9.12483	8.85989	8.36539	8.31747	6.93717	5.95460	31.39946	22.61028	15.84512
30780	3.82513	3.57816	3.16363	14.02991	12.61198	11.44819	25.30404	16.68470	10.13158	9.12240	8.85748	8.36435	8.31869	6.93397	5.95390	31.45013	22.60941	15.84272
30940	3.82396	3.57781	3.16498	14.02830	12.60862	11.44648	25.31024	16.66903	10.12437	9.12185	8.85553	8.36282	8.31771	6.93872	5.95452	31.45654	22.61241	15.84835
31110	3.82788	3.57950	3.16854	14.03359	12.61382	11.45279	25.25400	16.67157	10.12878	9.12633	8.85924	8.36677	8.31621	6.93579	5.95189	31.45700	22.60746	15.84382
31270	3.82444	3.57850	3.16725	14.03105	12.60978	11.45018	25.30662	16.67720	10.12669	9.12374	8.85743	8.36423	8.31897	6.93365	5.94916	31.45284	22.60502	15.84149	33.02	6.0	0.00	-2.04	0.01740	0.01204	0.01523	0.01816	0.01881	0.01471	0.00548	0.01521	0.02017	0.01856	0.01286	0.01638	0.01714	0.01772	0.01384	0.00567	0.01597	0.02135
31440	3.82438	3.57951	3.16491	14.02895	12.61050	11.44803	25.33174	16.67012	10.13186	9.12499	8.85684	8.36545	8.31711	6.93863	5.95260	31.43775	22.60615	15.84102
31600	3.82220	3.57746	3.16423	14.02546	12.60894	11.44817	25.25628	16.67536	10.13015	9.12312	8.85474	8.36302	8.31986	6.93712	5.95636	31.41994	22.61072	15.84288
31770	3.82470	3.57866	3.16695	14.02696	12.60878	11.44767	25.29807	16.66346	10.12610	9.12378	8.85568	8.36364	8.31709	6.93257	5.95226	31.45559	22.60214	15.84196
31930	3.82477	3.58048	3.16529	14.02778	12.60786	11.44829	25.35396	16.67645	10.13372	9.12354	8.85704	8.36528	8.31890	6.93630	5.95435	31.43455	22.60640	15.84158
32100	3.82399	3.58097	3.16706	14.02445	12.60433	11.44260	25.19539	16.66982	10.12760	9.12095	8.85322	8.36110	8.31862	6.93388	5.95610	31.41583	22.60502	15.84256
32260	3.82544	3.57836	3.16656	14.02609	12.60547	11.44483	25.28569	16.67278	10.12870	9.12184	8.85488	8.36200	8.31877	6.93357	5.95205	31.45742	22.60133	15.83851
32430	3.82486	3.58066	3.16554	14.02752	12.60813	11.44641	25.27421	16.68174	10.13040	9.12160	8.85522	8.36365	8.31999	6.93646	5.95935	31.43592	22.60139	15.84088
32590	3.82546	3.57863	3.16515	14.02570	12.60442	11.44525	25.31578	16.67228	10.13064	9.11953	8.85284	8.35932	8.31513	6.93580	5.95496	31.41082	22.60333	15.83821
32750	3.82199	3.57499	3.16400	14.02263	12.60223	11.44201	25.30574	16.67499	10.12592	9.11648	8.85127	8.35917	8.31802	6.93866	5.95733	31.44827	22.60508	15.83933
32920	3.82376	3.58088	3.16547	14.02482	12.60551	11.44471	25.29656	16.67853	10.13024	9.11858	8.85196	8.35969	8.31871	6.93516	5.95261	31.44186	22.59891	15.83642	33.02	6.0	0.00	-2.04	0.01740	0.01204	0.01523	0.01816	0.01881	0.01471	0.00548	0.01521	0.02017	0.01856	0.01286	0.01638	0.01714	0.01772	0.01384	0.00567	0.01597	0.02135
33080	3.82340	3.58011	3.16903	14.02101	12.60540	11.44438	25.29951	16.67374	10.13260	9.11953	8.85314	8.36052	8.31613	6.93728	5.95415	31.42633	22.60373	15.83985
33250	3.82464	3.57746	3.16512	14.02467	12.60283	11.44213	25.30718	16.67324	10.12583	9.11743	8.84973	8.35852	8.31811	6.93725	5.95699	31.46109	22.60248	15.84052
33410	3.82438	3.57983	3.16589	14.02255	12.60389	11.44390	25.33497	16.67511	10.12787	9.11892	8.85196	8.36002	8.31618	6.93356	5.95387	31.44506	22.60122	15.83888
33580	3.81995	3.57454	3.16296	14.02064	12.60042	11.44151	25.31132	16.67082	10.12147	9.11652	8.84963	8.35625	8.31745	6.93764	5.95461	31.44186	22.60692	15.84213
33740	3.82885	3.58159	3.16760	14.02662	12.60630	11.44681	25.24246	16.67949	10.12819	9.12009	8.85434	8.36103	8.31868	6.93648	5.95176	31.43775	22.60210	15.84002
33900	3.82425	3.58092	3.16841	14.02608	12.60648	11.44645	25.28065	16.68245	10.12766	9.12158	8.85323	8.36166	8.31853	6.93404	5.95481	31.45239	22.60905	15.83886
34070	3.82338	3.57727	3.16396	14.02058	12.60213	11.44327	25.26183	16.66991	10.12405	9.11552	8.85114	8.35775	8.31436	6.93438	5.95218	31.44003	22.60592	15.83935
34230	3.82405	3.57593	3.16543	14.02300	12.60168	11.44167	25.34178	16.66749	10.12279	9.11629	8.84933	8.35737	8.31539	6.93438	5.94988	31.43546	22.59953	15.83622
34400	3.82239	3.57561	3.16152	14.01950	12.59938	11.43812	25.27536	16.66845	10.12070	9.11406	8.84785	8.35504	8.31562	6.93700	5.95546	31.39624	22.59716	15.83765
34560	3.82362	3.58017	3.16496	14.02262	12.60162	11.44189	25.28718	16.66807	10.12470	9.11744	8.84969	8.35726	8.31486	6.93326	5.95356	31.43385	22.59847	15.83589	33.02	6.0	0.00	-2.04	0.01740	0.01204	0.01523	0.01816	0.01881	0.01471	0.00548	0.01521	0.02017	0.01856	0.01286	0.01639	0.01714	0.01772	0.01384	0.00567	0.01598	0.02135
34720	3.82068	3.58005	3.16594	14.02076	12.60252	11.44205	25.20503	16.67553	10.12965	9.11758	8.85110	8.35772	8.31498	6.93730	5.95465	31.42106	22.60054	15.83479
34890	3.82564	3.57589	3.16169	14.01885	12.59811	11.43899	25.26099	16.66666	10.12415	9.11354	8.84620	8.35517	8.31757	6.93654	5.95716	31.43704	22.59478	15.83479
35050	3.82258	3.57577	3.16467	14.01794	12.59862	11.43899	25.29101	16.67270	10.12659	9.11638	8.84807	8.35603	8.31475	6.93556	5.95158	31.42882	22.60185	15.83271
35220	3.82373	3.57707	3.16823	14.01915	12.59993	11.44151	25.26276	16.67124	10.12997	9.11694	8.84976	8.35792	8.31748	6.93669	5.95490	31.41878	22.60191	15.83410
35380	3.82320	3.57881	3.16621	14.01850	12.59817	11.43788	25.28305	16.66932	10.12530	9.11418	8.84542	8.35528	8.31635	6.93537	5.95233	31.45672	22.59816	15.83381
35550	3.82305	3.57788	3.16490	14.01653	12.59657	11.44041	25.26952	16.67070	10.12272	9.11582	8.84784	8.35634	8.31455	6.93909	5.95505	31.43202	22.59922	15.83482
35710	3.82610	3.57965	3.16696	14.01887	12.59907	11.43922	25.30133	16.67903	10.12988	9.11624	8.84911	8.35785	8.31781	6.93544	5.95343	31.40510	22.60028	15.83381
35880	3.82428	3.58343	3.16611	14.01656	12.60009	11.43934	25.28394	16.68507	10.12752	9.11754	8.84875	8.35861	8.31701	6.93611	5.95689	31.44390	22.60010	15.83459
36040	3.82356	3.57759	3.16761	14.01695	12.59768	11.43960	25.26511	16.66995	10.12189	9.11460	8.84683	8.35566	8.31781	6.93745	5.95471	31.43385	22.60254	15.83643
36210	3.82595	3.57982	3.16515	14.01843	12.59798	11.43930	25.36307	16.67307	10.12838	9.11495	8.84902	8.35550	8.31525	6.93362	5.95587	31.45527	22.59583	15.83400	33.02	6.0	0.00	-2.04	0.01740	0.01204	0.01523	0.01815	0.01881	0.01471	0.00548	0.01521	0.02017	0.01856	0.01286	0.01638	0.01714	0.01772	0.01384	0.00567	0.01597	0.02135
36370	3.82211	3.57772	3.16686	14.01692	12.60003	11.44094	25.29296	16.67711	10.12947	9.11684	8.84936	8.35709	8.31671	6.93509	5.95425	31.45299	22.60553	15.83539
36540	3.82219	3.58006	3.16526	14.01718	12.59708	11.43733	25.27617	16.66304	10.12290	9.11285	8.84557	8.35339	8.31686	6.93892	5.95672	31.41917	22.60353	15.83787
36700	3.82348	3.58086	3.16591	14.01980	12.59926	11.43904	25.28766	16.67757	10.12965	9.11296	8.84737	8.35471	8.31746	6.93565	5.95535	31.42419	22.59883	15.83098
36870	3.82184	3.57728	3.16431	14.01504	12.59601	11.43746	25.26441	16.66117	10.12322	9.11108	8.84645	8.35486	8.31346	6.93671	5.95422	31.42921	22.59533	15.83089
37030	3.82359	3.58108	3.16518	14.01582	12.59608	11.43735	25.29797	16.67103	10.12787	9.11212	8.84763	8.35488	8.31650	6.93743	5.95439	31.44155	22.59483	15.83078
37200	3.82341	3.57587	3.16583	14.01339	12.59187	11.43476	25.24826	16.67428	10.12723	9.10855	8.84384	8.35131	8.31623	6.94045	5.95993	31.40367	22.59489	15.83259
37360	3.82597	3.58244	3.16650	14.01642	12.59588	11.43610	25.25384	16.67157	10.12946	9.11195	8.84590	8.35360	8.31464	6.93480	5.95028	31.44795	22.59089	15.82963
37530	3.82703	3.58128	3.16861	14.01720	12.59694	11.43802	25.33047	16.67332	10.13183	9.11252	8.84648	8.35415	8.31954	6.93666	5.95403	31.43286	22.59258	15.83304
37690	3.82650	3.57903	3.16570	14.01320	12.59356	11.43233	25.32485	16.67366	10.12532	9.10644	8.83936	8.34879	8.31740	6.93474	5.95423	31.42738	22.58970	15.82540
37860	3.82603	3.57716	3.16682	14.00872	12.58832	11.43112	25.30978	16.66595	10.12659	9.10475	8.83810	8.34629	8.31270	6.93508	5.95161	31.41924	22.58642	15.82365	33.02	6.1	0.00	-2.04	0.01740	0.01204	0.01523	0.01816	0.01881	0.01471	0.00548	0.01521	0.02017	0.01856	0.01286	0.01638	0.01714	0.01772	0.01384	0.00567	0.01598	0.02135
38020	3.82415	3.58313	3.16766	14.00738	12.58861	11.42980	25.33017	16.67128	10.12527	9.10561	8.83990	8.34826	8.31314	6.93402	5.95343	31.43613	22.58961	15.82381
38190	3.82576	3.57795	3.16881	14.00810	12.58703	11.42819	25.28353	16.66629	10.12378	9.10446	8.83942	8.34734	8.31320	6.93527	5.95645	31.43247	22.58792	15.82725
38350	3.82532	3.58003	3.16852	14.00862	12.58985	11.43183	25.25090	16.66837	10.12953	9.10735	8.84034	8.34920	8.31834	6.93434	5.95826	31.41012	22.58730	15.82606
38520	3.82582	3.58272	3.16945	14.01158	12.59209	11.43237	25.25413	16.68495	10.12921	9.10793	8.84172	8.34945	8.31774	6.93724	5.95412	31.42334	22.58949	15.82839
38680	3.82596	3.58228	3.17144	14.01264	12.59114	11.42983	25.26676	16.67162	10.12982	9.10714	8.84131	8.35075	8.31796	6.93723	5.95600	31.43613	22.59155	15.82947
38850	3.82762	3.58244	3.17107	14.01444	12.59446	11.43462	25.24180	16.67012	10.12896	9.10914	8.84286	8.35022	8.31894	6.93392	5.95408	31.43110	22.58930	15.82649
39010	3.82456	3.58335	3.17161	14.01084	12.58895	11.43084	25.38655	16.67145	10.12749	9.10597	8.84182	8.34828	8.32035	6.93381	5.95404	31.44024	22.58355	15.82369
39180	3.82785	3.58182	3.16918	14.01318	12.59274	11.43331	25.29326	16.67866	10.13502	9.10882	8.84321	8.34917	8.31760	6.93739	5.95945	31.44482	22.58867	15.82703
39340	3.82629	3.57855	3.16645	14.01063	12.58818	11.42922	25.27470	16.66333	10.12587	9.10480	8.83833	8.34668	8.32171	6.93654	5.95717	31.42243	22.59249	15.82853
39510	3.82806	3.58348	3.16885	14.01316	12.59151	11.43235	25.31189	16.67500	10.12786	9.10645	8.83866	8.34827	8.31916	6.93661	5.95460	31.43782	22.58465	15.82259	33.02	6.1	0.00	-2.04	0.01740	0.01204	0.01523	0.01816	0.01881	0.01471	0.00548	0.01520	0.02017	0.01856	0.01286	0.01638	0.01714	0.01772	0.01384	0.00567	0.01598	0.02135
39670	3.82571	3.58045	3.16736	14.00980	12.58632	11.42562	25.34740	16.67321	10.12858	9.10276	8.83511	8.34401	8.31365	6.93924	5.95588	31.40952	22.58121	15.82109
39840	3.82652	3.57995	3.16901	14.00645	12.58786	11.42655	25.32549	16.67466	10.12923	9.10212	8.83556	8.34415	8.31574	6.93616	5.95761	31.39176	22.58365	15.82178
40000	3.82525	3.58053	3.16963	14.00619	12.58596	11.42537	25.29566	16.66775	10.12778	9.10296	8.83736	8.34529	8.31999	6.93723	5.95588	31.44788	22.58152	15.82095
40170	3.82675	3.58191	3.16881	14.00952	12.58996	11.42916	25.35540	16.67654	10.13029	9.10671	8.84078	8.34875	8.32096	6.93937	5.95467	31.42548	22.58640	15.82525
40330	3.82823	3.58122	3.17008	14.00913	12.58932	11.42837	25.34473	16.67841	10.12870	9.10518	8.83852	8.34767	8.31992	6.93853	5.95764	31.45337	22.58990	15.82610
40490	3.82707	3.57910	3.17027	14.01043	12.58914	11.42794	25.29566	16.67871	10.12781	9.10435	8.83918	8.34656	8.31907	6.93506	5.95525	31.43599	22.58159	15.82138
40660	3.82748	3.57968	3.17050	14.00699	12.58720	11.42760	25.29360	16.68237	10.13514	9.10376	8.83884	8.34691	8.31761	6.93528	5.95785	31.41317	22.57934	15.82234
40820	3.82450	3.57879	3.16699	14.00719	12.58490	11.42653	25.30451	16.68467	10.12843	9.10197	8.83400	8.34364	8.31497	6.93366	5.95268	31.41545	22.58202	15.81939
40980	3.82591	3.58057	3.16980	14.00669	12.58666	11.42839	25.34414	16.68150	10.12892	9.10410	8.83761	8.34644	8.31794	6.93678	5.95381	31.41089	22.58571	15.82138
41150	3.82514	3.57669	3.16638	14.00434	12.58273	11.42398	25.33824	16.67611	10.12554	9.10026	8.83424	8.34095	8.31904	6.93651	5.95543	31.42664	22.58672	15.82139	33.02	6.0	0.00	-2.04	0.01740	0.01204	0.01523	0.01815	0.01882	0.01471	0.00548	0.01521	0.02017	0.01856	0.01286	0.01639	0.01714	0.01772	0.01384	0.00567	0.01598	0.02135
41310	3.82783	3.58130	3.17048	14.00659	12.58569	11.42707	25.35573	16.67307	10.13236	9.10432	8.83660	8.34578	8.32078	6.94108	5.95971	31.40065	22.58016	15.81886
41470	3.82498	3.57891	3.16727	14.00136	12.58250	11.42349	25.33647	16.66794	10.12367	9.09934	8.83170	8.34114	8.31606	6.93757	5.95851	31.43898	22.58204	15.81884
41640	3.82813	3.57996	3.16738	14.00400	12.58318	11.42307	25.31842	16.68603	10.12897	9.10067	8.83420	8.34245	8.31807	6.93724	5.95520	31.41706	22.57997	15.81770
41800	3.82441	3.57765	3.16723	14.00030	12.57895	11.42034	25.31429	16.67219	10.12889	9.09834	8.82978	8.33901	8.31738	6.93384	5.95452	31.37700	22.57748	15.81564
41960	3.82653	3.58269	3.16561	13.99970	12.58119	11.42212	25.31222	16.67169	10.12717	9.09957	8.83212	8.34023	8.31821	6.93218	5.95290	31.44309	22.57791	15.81488
42130	3.82382	3.57967	3.16755	14.00041	12.57974	11.41838	25.30720	16.67807	10.12382	9.09753	8.82924	8.33823	8.31192	6.93374	5.95293	31.39109	22.57573	15.81596
42290	3.82758	3.57954	3.16933	14.00117	12.58090	11.42014	25.30868	16.67623	10.12540	9.09835	8.83029	8.33923	8.31676	6.93860	5.95587	31.42390	22.57335	15.81372
42460	3.82610	3.57969	3.16849	13.99674	12.57751	11.41686	25.25979	16.67219	10.12418	9.09673	8.82873	8.33926	8.31775	6.93809	5.95749	31.44218	22.58204	15.81938
42620	3.82768	3.58418	3.17008	14.00272	12.58262	11.42200	25.26860	16.67132	10.12989	9.09963	8.83170	8.34137	8.31407	6.93397	5.95238	31.41980	22.57835	15.81337
42790	3.82680	3.58199	3.17212	14.00117	12.58402	11.42382	25.31598	16.68180	10.12999	9.10093	8.83600	8.34288	8.31624	6.93550	5.95250	31.46034	22.58282	15.81742	33.02	6.2	0.00	-2.04	0.01740	0.01204	0.01523	0.01815	0.01882	0.01471	0.00548	0.01520	0.02017	0.01856	0.01286	0.01639	0.01714	0.01772	0.01384	0.00567	0.01598	0.02135
42950	3.82621	3.58180	3.16970	14.00003	12.58076	11.41990	25.32988	16.67375	10.12842	9.09771	8.83142	8.34120	8.32089	6.93976	5.95751	31.41236	22.58314	15.81835
43110	3.82971	3.58343	3.17090	14.00193	12.58264	11.42178	25.26617	16.67421	10.12668	9.09951	8.83202	8.34108	8.31686	6.93514	5.95340	31.40962	22.57776	15.81447
43280	3.82898	3.58305	3.17164	14.00200	12.58146	11.42206	25.29797	16.67563	10.12689	9.10034	8.83232	8.34097	8.31416	6.93439	5.95388	31.41646	22.57358	15.81458
43440	3.82533	3.58287	3.16823	13.99750	12.57746	11.41684	25.28943	16.67242	10.12293	9.09693	8.82846	8.33765	8.31775	6.93624	5.95948	31.41874	22.57758	15.81413
43610	3.82822	3.58298	3.17047	13.99867	12.57878	11.41973	25.25589	16.66780	10.12526	9.09750	8.83052	8.34000	8.31687	6.93392	5.95500	31.43335	22.57470	15.81094
43770	3.82666	3.58310	3.17084	13.99940	12.57907	11.41945	25.30388	16.67388	10.13008	9.09845	8.83130	8.33978	8.31621	6.93572	5.95178	31.44341	22.57745	15.81228
43940	3.82941	3.58394	3.17134	13.99314	12.57642	11.41480	25.31066	16.67171	10.12760	9.09548	8.82691	8.33662	8.31633	6.93753	5.95443	31.40552	22.57645	15.81368
44100	3.82681	3.58509	3.17044	13.99748	12.57796	11.41672	25.30447	16.68442	10.13015	9.09808	8.83058	8.33898	8.31267	6.93391	5.95605	31.42741	22.57776	15.81326
44270	3.82725	3.58151	3.17270	14.00059	12.58033	11.41961	25.33876	16.68246	10.13241	9.09900	8.83232	8.34150	8.32003	6.93762	5.95709	31.42468	22.57620	15.81411
44430	3.82628	3.58204	3.17052	13.99742	12.57787	11.41719	25.28862	16.67097	10.12566	9.09582	8.82932	8.33871	8.31443	6.93460	5.95108	31.39778	22.57693	15.81218	33.02	6.1	0.00	-2.04	0.01740	0.01204	0.01523	0.01815	0.01882	0.01471	0.00548	0.01520	0.02017	0.01856	0.01286	0.01639	0.01714	0.01772	0.01384	0.00567	0.01598	0.02135
44600	3.82557	3.58301	3.16899	13.99681	12.57834	11.41791	25.32404	16.66834	10.12934	9.09678	8.82966	8.33865	8.31492	6.93728	5.95470	31.41190	22.57093	15.81316
44760	3.82855	3.58034	3.16886	13.99832	12.57875	11.41842	25.36671	16.66589	10.12669	9.09714	8.82943	8.33895	8.31383	6.93336	5.95520	31.42285	22.57805	15.81186
44930	3.82534	3.58214	3.17129	13.99664	12.57839	11.41650	25.26302	16.66210	10.12011	9.09606	8.82863	8.33760	8.31324	6.93676	5.94857	31.44204	22.57555	15.80853
45090	3.82684	3.58336	3.17189	13.99569	12.57629	11.41682	25.30012	16.67438	10.12849	9.09660	8.82821	8.33798	8.31420	6.93331	5.95396	31.37096	22.57125	15.81014
45260	3.82705	3.58096	3.16984	13.99407	12.57405	11.41206	25.30100	16.66659	10.12465	9.09299	8.82476	8.33432	8.31683	6.93538	5.95494	31.41646	22.57505	15.81068
45420	3.82721	3.58156	3.17074	13.99580	12.57515	11.41616	25.33735	16.67134	10.12778	9.09471	8.82645	8.33639	8.31591	6.93310	5.94632	31.39778	22.56607	15.80492
45590	3.82922	3.58486	3.17096	13.99718	12.57753	11.41846	25.28980	16.67563	10.12988	9.09757	8.83119	8.33946	8.31859	6.93527	5.95522	31.39550	22.57349	15.81226
45750	3.82535	3.58021	3.16783	13.99491	12.57577	11.41694	25.36137	16.66793	10.12098	9.09408	8.82774	8.33671	8.31352	6.93345	5.95244	31.38368	22.56395	15.80590
45910	3.82274	3.57948	3.16708	13.99290	12.57464	11.41347	25.29599	16.66397	10.12512	9.09413	8.82795	8.33643	8.31372	6.93178	5.94966	31.39232	22.56806	15.80510
46080	3.82558	3.58403	3.16867	13.99316	12.57299	11.41399	25.30881	16.66833	10.12399	9.09465	8.82664	8.33530	8.31156	6.93552	5.95109	31.42594	22.56815	15.80648	32.97	6.1	0.00	-2.04	0.01740	0.01204	0.01523	0.01815	0.01882	0.01471	0.00548	0.01520	0.02017	0.01856	0.01286	0.01638	0.01714	0.01772	0.01384	0.00567	0.01597	0.02135
46240	3.82419	3.58017	3.16988	13.99243	12.57265	11.41454	25.21010	16.66633	10.12600	9.09482	8.82508	8.33483	8.31009	6.93279	5.95031	31.40177	22.57258	15.80720
46410	3.82543	3.58213	3.17135	13.99180	12.57252	11.41229	25.26903	16.66891	10.12269	9.09543	8.82555	8.33617	8.31539	6.93231	5.95450	31.41043	22.56622	15.80724
46570	3.82678	3.58200	3.16960	13.99355	12.57272	11.41460	25.32388	16.66970	10.12624	9.09408	8.82657	8.33637	8.31490	6.93203	5.95236	31.41316	22.56478	15.80521
46740	3.82450	3.58211	3.16947	13.99532	12.57677	11.41666	25.31945	16.66737	10.12323	9.09611	8.82761	8.33692	8.31664	6.93556	5.95421	31.43324	22.57021	15.80900
46900	3.82567	3.57958	3.16886	13.99299	12.57401	11.41340	25.31649	16.66188	10.12159	9.09243	8.82371	8.33403	8.31550	6.93353	5.94979	31.42137	22.56466	15.80387
47070	3.82533	3.58147	3.16894	13.98913	12.57315	11.41086	25.31649	16.66292	10.12269	9.09248	8.82358	8.33227	8.31115	6.93521	5.95320	31.40906	22.56210	15.80463
47230	3.82527	3.57886	3.16722	13.99141	12.57189	11.41068	25.30084	16.66749	10.12210	9.09133	8.82386	8.33273	8.31381	6.93206	5.95267	31.40815	22.56310	15.80481
47400	3.82708	3.58229	3.16855	13.99234	12.57256	11.41088	25.24964	16.66433	10.12234	9.09172	8.82393	8.33167	8.31509	6.93241	5.95256	31.38903	22.56684	15.79996
47560	3.82348	3.57979	3.17063	13.98611	12.57073	11.40951	25.30143	16.67578	10.12690	9.09364	8.82415	8.33312	8.31368	6.93493	5.95231	31.40450	22.56410	15.80367
47730	3.82601	3.58144	3.16850	13.98966	12.57119	11.40817	25.32850	16.66425	10.12352	9.08991	8.82181	8.33201	8.31848	6.93768	5.95554	31.40275	22.57225	15.80605	32.97	6.1	0.00	-2.04	0.01740	0.01204	0.01523	0.01816	0.01882	0.01471	0.00548	0.01520	0.02017	0.01856	0.01286	0.01638	0.01714	0.01772	0.01384	0.00567	0.01597	0.02135
47890	3.82866	3.58378	3.17055	13.99346	12.57277	11.41140	25.29425	16.67028	10.12331	9.09195	8.82510	8.33420	8.31740	6.93399	5.95290	31.42966	22.55771	15.80232
48060	3.82648	3.58154	3.16803	13.98799	12.56997	11.40874	25.34182	16.66949	10.12520	9.09005	8.82276	8.33170	8.31345	6.93451	5.95153	31.44292	22.56314	15.80210
48220	3.82752	3.58130	3.17092	13.98890	12.57207	11.41068	25.29100	16.66812	10.12398	9.09103	8.82438	8.33289	8.31693	6.93219	5.95220	31.43926	22.56513	15.80284
48390	3.82577	3.58220	3.17178	13.98884	12.57015	11.40785	25.30988	16.67603	10.12232	9.08902	8.82195	8.33011	8.31464	6.93480	5.95712	31.41779	22.56314	15.80185
48550	3.82620	3.58293	3.17030	13.98670	12.56938	11.40615	25.29041	16.66745	10.12510	9.08705	8.82137	8.32932	8.31176	6.93297	5.95066	31.38546	22.56176	15.79808
48720	3.82809	3.58322	3.17055	13.98894	12.56936	11.40716	25.29660	16.67491	10.12936	9.08853	8.82290	8.33097	8.31720	6.93481	5.95418	31.42784	22.56332	15.80005
48880	3.82549	3.58072	3.16937	13.98687	12.56661	11.40507	25.25453	16.67124	10.12331	9.08627	8.81841	8.32731	8.31419	6.93329	5.95825	31.40959	22.56214	15.80170
49050	3.82887	3.58157	3.16813	13.98627	12.56890	11.40775	25.25482	16.65905	10.12665	9.08810	8.82202	8.32980	8.31465	6.93231	5.95244	31.42647	22.56158	15.79681
49210	3.82546	3.58414	3.17140	13.98784	12.57178	11.41003	25.26216	16.66633	10.12720	9.09064	8.82501	8.33153	8.31528	6.93819	5.95511	31.40139	22.56077	15.80052
49380	3.82543	3.57995	3.16667	13.98750	12.56789	11.40687	25.28222	16.67499	10.12437	9.08764	8.81988	8.33011	8.31237	6.93445	5.95355	31.38927	22.56238	15.80130	33.02	6.1	0.00	-2.04	0.01740	0.01204	0.01523	0.01816	0.01882	0.01471	0.00548	0.01521	0.02017	0.01856	0.01286	0.01639	0.01714	0.01773	0.01384	0.00567	0.01597	0.02135
49540	3.82645	3.58023	3.17018	13.98821	12.56988	11.40834	25.23668	16.66075	10.12443	9.08743	8.82213	8.32876	8.31345	6.92529	5.94853	31.38473	22.55502	15.79666
49710	3.82473	3.58108	3.17102	13.98715	12.57017	11.40909	25.26897	16.67566	10.12573	9.08975	8.82493	8.33175	8.31462	6.93234	5.95263	31.40293	22.56263	15.79998
49870	3.82148	3.57776	3.16779	13.98599	12.56870	11.40545	25.28133	16.66333	10.12175	9.08611	8.81935	8.32863	8.31053	6.93294	5.95235	31.39064	22.55340	15.79639
50030	3.82517	3.58075	3.16829	13.98476	12.56635	11.40465	25.31407	16.66849	10.12014	9.08636	8.82004	8.32701	8.31137	6.93253	5.95125	31.37246	22.55683	15.79896
50200	3.82198	3.58069	3.16829	13.98618	12.56748	11.40638	25.28811	16.66625	10.12136	9.08727	8.81898	8.32758	8.31166	6.93181	5.95074	31.40065	22.55620	15.79639
50360	3.82627	3.58147	3.16767	13.98504	12.56631	11.40564	25.25369	16.67233	10.11855	9.08516	8.81856	8.32577	8.31495	6.93408	5.95455	31.38427	22.55814	15.80050
50530	3.82609	3.58559	3.17131	13.98620	12.56877	11.40572	25.30846	16.66883	10.12494	9.08701	8.81939	8.32810	8.31762	6.93467	5.95292	31.40612	22.55371	15.79668
50690	3.82548	3.58420	3.17247	13.98489	12.56816	11.40699	25.31348	16.66783	10.12757	9.08842	8.82327	8.33020	8.31575	6.93500	5.95256	31.38473	22.55770	15.79840
50850	3.82531	3.58084	3.16759	13.98333	12.56638	11.40442	25.29223	16.67212	10.12354	9.08446	8.81780	8.32697	8.31666	6.93268	5.95179	31.39200	22.56088	15.79635
51020	3.82617	3.58327	3.17061	13.98522	12.56561	11.40297	25.28767	16.66488	10.12340	9.08460	8.81806	8.32681	8.31374	6.92880	5.95072	31.40742	22.54908	15.79123	33.02	6.1	0.00	-2.04	0.01740	0.01204	0.01522	0.01816	0.01882	0.01471	0.00548	0.01520	0.02017	0.01856	0.01286	0.01639	0.01714	0.01773	0.01384	0.00567	0.01597	0.02135
51180	3.82501	3.58038	3.16988	13.98050	12.56342	11.40099	25.21721	16.66267	10.12082	9.08338	8.81604	8.32461	8.30931	6.93179	5.94815	31.38147	22.55325	15.79247
51350	3.82209	3.57773	3.16562	13.98005	12.56244	11.40081	25.29298	16.66654	10.12166	9.08164	8.81613	8.32470	8.31378	6.93371	5.94798	31.37966	22.55443	15.78973
51510	3.82529	3.58193	3.17065	13.98276	12.56654	11.40273	25.23536	16.67242	10.12429	9.08564	8.81915	8.32897	8.32106	6.93677	5.95406	31.40195	22.55861	15.79577
51680	3.82696	3.58200	3.16744	13.98166	12.56421	11.40128	25.30153	16.65560	10.12012	9.08300	8.81595	8.32571	8.31868	6.93340	5.95292	31.41882	22.55674	15.79707
51840	3.82399	3.58006	3.16751	13.98386	12.56604	11.40210	25.33433	16.66322	10.12108	9.08368	8.81629	8.32522	8.31480	6.93371	5.95262	31.40833	22.55493	15.79044
52000	3.82374	3.57948	3.16837	13.98216	12.56351	11.40225	25.31777	16.66913	10.12396	9.08387	8.81658	8.32581	8.31438	6.93393	5.95234	31.37966	22.55512	15.79421
52170	3.82364	3.58062	3.16782	13.98298	12.56582	11.40118	25.25884	16.66326	10.11783	9.08333	8.81683	8.32539	8.31248	6.93102	5.94922	31.39512	22.55063	15.79254
52330	3.82464	3.58126	3.17056	13.98505	12.56679	11.40557	25.29416	16.66409	10.12292	9.08773	8.81971	8.32829	8.31474	6.93578	5.95648	31.40013	22.55774	15.79983
52500	3.82567	3.57979	3.16744	13.98552	12.56742	11.40333	25.26589	16.66621	10.12074	9.08446	8.81727	8.32662	8.31262	6.93288	5.95271	31.39785	22.55674	15.79720
52660	3.82447	3.58285	3.16996	13.98600	12.56636	11.40323	25.35912	16.66697	10.11863	9.08482	8.81777	8.32707	8.30700	6.93121	5.94921	31.37661	22.55218	15.79085	33.02	6.0	0.00	-2.04	0.01740	0.01204	0.01523	0.01816	0.01882	0.01471	0.00548	0.01520	0.02017	0.01856	0.01286	0.01639	0.01714	0.01773	0.01384	0.00567	0.01597	0.02135
52830	3.82350	3.58245	3.17002	13.98371	12.56679	11.40428	25.31323	16.65577	10.12222	9.08517	8.81805	8.32792	8.31476	6.93193	5.95240	31.42078	22.54931	15.79272
52990	3.82334	3.58118	3.17006	13.98071	12.56215	11.39958	25.30703	16.65631	10.11963	9.08224	8.81515	8.32405	8.31258	6.93278	5.95167	31.40300	22.54869	15.79243
53160	3.82476	3.58207	3.16980	13.98214	12.56373	11.40140	25.25344	16.65889	10.12073	9.08319	8.81575	8.32564	8.31302	6.93740	5.95780	31.40801	22.55131	15.79558
53320	3.82899	3.58342	3.17275	13.98580	12.56735	11.40459	25.29818	16.66884	10.12369	9.08524	8.81888	8.32666	8.31145	6.93475	5.95222	31.43814	22.55455	15.79565
53480	3.82286	3.58168	3.17298	13.98319	12.56550	11.40451	25.27932	16.65814	10.12493	9.08563	8.81873	8.32670	8.31426	6.93297	5.95236	31.39207	22.55754	15.79553
53650	3.82720	3.58224	3.17078	13.98373	12.56226	11.40130	25.30614	16.66755	10.11710	9.08168	8.81546	8.32449	8.31404	6.93445	5.95666	31.41668	22.55573	15.79462
53810	3.82893	3.58303	3.17210	13.98634	12.56693	11.40533	25.28992	16.66830	10.12228	9.08318	8.81719	8.32387	8.31890	6.93367	5.95476	31.40801	22.55517	15.79315
53980	3.82520	3.58139	3.17059	13.98278	12.56475	11.40192	25.25814	16.65627	10.12215	9.08304	8.81645	8.32356	8.31012	6.93362	5.95407	31.39253	22.55230	15.79090
54140	3.82453	3.57777	3.16685	13.97981	12.56076	11.39793	25.24405	16.66501	10.12015	9.07784	8.81146	8.32003	8.30926	6.92817	5.94901	31.39071	22.54489	15.78624
54300	3.82755	3.57871	3.16980	13.97840	12.55990	11.39964	25.31699	16.66280	10.12154	9.07997	8.81480	8.32144	8.31592	6.93289	5.95558	31.38497	22.55410	15.78864	33.02	6.2	0.00	-2.04	0.01740	0.01204	0.01522	0.01815	0.01881	0.01471	0.00548	0.01520	0.02017	0.01856	0.01286	0.01639	0.01714	0.01773	0.01384	0.00567	0.01597	0.02135
54470	3.82714	3.58101	3.17008	13.97954	12.55901	11.39567	25.25219	16.66359	10.11922	9.07719	8.81278	8.31958	8.31156	6.93430	5.95172	31.40409	22.54855	15.79002
54630	3.82614	3.57975	3.16958	13.97932	12.55776	11.39706	25.27277	16.66313	10.11863	9.07850	8.81400	8.32090	8.31245	6.93341	5.95495	31.41183	22.54912	15.78868
54800	3.82501	3.58160	3.17082	13.97896	12.55947	11.39952	25.27365	16.66126	10.11819	9.07961	8.81363	8.32204	8.31043	6.93033	5.95271	31.35682	22.54899	15.78913
54960	3.82462	3.58128	3.17150	13.97790	12.55992	11.39837	25.31079	16.66542	10.12244	9.07950	8.81220	8.31944	8.31064	6.93351	5.95337	31.37315	22.54196	15.78824
55130	3.82624	3.58211	3.17231	13.97878	12.55915	11.39762	25.30429	16.66825	10.12106	9.07776	8.81109	8.32051	8.30921	6.93249	5.95462	31.38588	22.54046	15.78576
55290	3.82773	3.58468	3.17075	13.97598	12.55819	11.39769	25.34510	16.67333	10.12165	9.07740	8.81025	8.31859	8.30950	6.93438	5.95009	31.39134	22.54924	15.78761
55460	3.82636	3.58112	3.16913	13.97581	12.55351	11.39353	25.25307	16.65448	10.12103	9.07530	8.80939	8.31748	8.31013	6.93350	5.95418	31.39498	22.54669	15.78933
55620	3.82775	3.58204	3.17275	13.97592	12.55670	11.39583	25.27159	16.65602	10.11999	9.07759	8.81189	8.31884	8.31074	6.92881	5.95040	31.38088	22.54781	15.78563
55790	3.82678	3.58324	3.17496	13.98008	12.56037	11.40247	25.35726	16.66784	10.12508	9.08182	8.81605	8.32361	8.31417	6.93141	5.95255	31.38270	22.54494	15.79027
55950	3.82781	3.58230	3.17203	13.97862	12.55831	11.39857	25.28130	16.67261	10.12351	9.07821	8.81248	8.32077	8.31162	6.93045	5.95304	31.38340	22.54443	15.78725	33.02	6.2	0.00	-2.04	0.01740	0.01204	0.01523	0.01816	0.01882	0.01471	0.00548	0.01521	0.02017	0.01856	0.01286	0.01639	0.01714	0.01773	0.01384	0.00567	0.01597	0.02135
56120	3.82533	3.57998	3.17238	13.97644	12.55706	11.39658	25.26394	16.66420	10.11839	9.07763	8.80907	8.31884	8.31219	6.93506	5.95182	31.37840	22.54300	15.78389
56280	3.82657	3.58108	3.16805	13.97364	12.55289	11.39303	25.32172	16.66187	10.11632	9.07449	8.80497	8.31439	8.30629	6.92808	5.95200	31.36478	22.53840	15.77901
56440	3.82216	3.58244	3.17143	13.97150	12.55359	11.39307	25.29662	16.65700	10.12150	9.07598	8.80889	8.31676	8.31050	6.93019	5.95365	31.37386	22.54692	15.78438
56610	3.82722	3.58120	3.17130	13.97353	12.55194	11.39097	25.26159	16.65567	10.12069	9.07031	8.80482	8.31393	8.30996	6.93227	5.95365	31.38340	22.54369	15.78456
56770	3.82764	3.58295	3.17120	13.97575	12.55465	11.39317	25.37597	16.66745	10.11798	9.07233	8.80515	8.31388	8.31290	6.92964	5.94906	31.39477	22.54306	15.78173
56940	3.82597	3.58281	3.17221	13.97230	12.55364	11.39109	25.31374	16.66670	10.12195	9.07192	8.80339	8.31284	8.31126	6.93045	5.95263	31.36705	22.53983	15.78019
57100	3.82411	3.58209	3.16806	13.96907	12.55026	11.38823	25.33800	16.66478	10.11594	9.06863	8.80206	8.31022	8.30744	6.92873	5.94866	31.37658	22.53187	15.77536
57260	3.82832	3.58608	3.17226	13.97189	12.55128	11.38986	25.33385	16.66770	10.12419	9.07197	8.80404	8.31301	8.31589	6.93080	5.95097	31.38203	22.53771	15.78075
57430	3.82612	3.58075	3.16949	13.96950	12.54865	11.38751	25.27365	16.65467	10.11798	9.06850	8.80016	8.30881	8.31288	6.93141	5.95265	31.37022	22.53678	15.77914
57590	3.82619	3.58154	3.16919	13.97221	12.54957	11.38900	25.31074	16.65521	10.11856	9.06754	8.80037	8.30882	8.30849	6.92912	5.95023	31.40184	22.53320	15.77633	33.02	6.0	0.00	-2.04	0.01740	0.01204	0.01523	0.01816	0.01882	0.01471	0.00548	0.01521	0.02017	0.01856	0.01286	0.01639	0.01714	0.01773	0.01384	0.00567	0.01598	0.02135
57760	3.82609	3.58160	3.17175	13.96932	12.54941	11.38803	25.27243	16.66520	10.12214	9.06884	8.80091	8.31076	8.30925	6.92856	5.95225	31.37592	22.53382	15.77765
57920	3.82580	3.58203	3.17185	13.96659	12.54597	11.38505	25.22284	16.65480	10.12026	9.06612	8.79945	8.30902	8.31444	6.93095	5.95128	31.37455	22.54178	15.77912
58090	3.82773	3.58492	3.17328	13.96779	12.54832	11.38938	25.26361	16.66736	10.11773	9.06994	8.80123	8.31023	8.31043	6.92929	5.95290	31.38319	22.53562	15.77782
58250	3.82908	3.58285	3.17169	13.97001	12.54916	11.38942	25.31488	16.65946	10.12636	9.07145	8.80370	8.31270	8.31191	6.93317	5.95492	31.39729	22.53967	15.77958
58420	3.82777	3.58139	3.17157	13.96870	12.54823	11.38755	25.32818	16.65713	10.11882	9.06777	8.80121	8.30956	8.31126	6.93281	5.95123	31.41734	22.54128	15.78010
58580	3.82668	3.58422	3.17429	13.96947	12.54885	11.38872	25.30159	16.66195	10.12054	9.06853	8.80231	8.30843	8.30923	6.93247	5.94772	31.38091	22.53388	15.77518
58750	3.82689	3.58551	3.17095	13.96682	12.54925	11.38745	25.30012	16.66378	10.12092	9.06861	8.80073	8.30790	8.31268	6.93053	5.95384	31.36820	22.53469	15.77693
58910	3.82534	3.58083	3.17404	13.96672	12.54460	11.38444	25.27655	16.65883	10.12075	9.06438	8.79673	8.30518	8.31106	6.93398	5.95490	31.40913	22.53575	15.77696
59080	3.82808	3.58426	3.17293	13.96781	12.54717	11.38543	25.23924	16.66432	10.11686	9.06655	8.79798	8.30761	8.30926	6.93471	5.95778	31.40594	22.54135	15.78226
59240	3.83098	3.58775	3.17868	13.97046	12.55116	11.39103	25.26756	16.66626	10.12218	9.07104	8.80202	8.31151	8.31330	6.93320	5.95448	31.44038	22.53751	15.77981	32.97	6.1	0.00	-2.04	0.01740	0.01204	0.01523	0.01816	0.01882	0.01471	0.00548	0.01521	0.02017	0.01856	0.01286	0.01639	0.01714	0.01773	0.01384	0.00567	0.01598	0.02135
59400	3.82721	3.58348	3.17228	13.97091	12.54784	11.38698	25.25786	16.66605	10.12058	9.06805	8.79862	8.30797	8.31219	6.93155	5.94969	31.40934	22.53627	15.77745
59570	3.82501	3.58467	3.17299	13.96620	12.54625	11.38627	25.29200	16.66405	10.11941	9.06557	8.79704	8.30583	8.30971	6.93194	5.95525	31.41071	22.53447	15.77560
59730	3.82601	3.58102	3.17325	13.96628	12.54471	11.38361	25.28905	16.66738	10.12059	9.06338	8.79681	8.30532	8.31263	6.93271	5.95361	31.38612	22.53882	15.77478
59900	3.82510	3.58302	3.17323	13.96519	12.54458	11.38311	25.24495	16.66426	10.12036	9.06336	8.79541	8.30412	8.31201	6.93130	5.95014	31.37840	22.53173	15.77329
60060	3.82623	3.58289	3.17428	13.96542	12.54634	11.38416	25.24143	16.65973	10.12393	9.06523	8.79688	8.30512	8.31287	6.93306	5.95459	31.38476	22.53757	15.77257
60230	3.82826	3.58226	3.17268	13.96409	12.54139	11.38176	25.25346	16.65095	10.12038	9.06182	8.79304	8.30201	8.31499	6.93726	5.95845	31.41071	22.53453	15.77531
60400	3.82985	3.58634	3.17406	13.96562	12.54378	11.38279	25.28169	16.65848	10.12169	9.06381	8.79402	8.30415	8.31180	6.93304	5.94956	31.37749	22.53347	15.77282
60560	3.82630	3.58284	3.17499	13.96204	12.54357	11.38220	25.27845	16.66647	10.12085	9.06411	8.79228	8.30231	8.30813	6.93456	5.95305	31.36977	22.52987	15.77104
60730	3.82665	3.58543	3.17339	13.96273	12.54362	11.38277	25.25287	16.66131	10.12320	9.06408	8.79539	8.30416	8.31168	6.93349	5.94983	31.38112	22.53105	15.77133
60890	3.82725	3.58167	3.17305	13.95938	12.53970	11.38108	25.24943	16.65587	10.12042	9.06069	8.79172	8.30119	8.31267	6.93373	5.95758	31.41503	22.53780	15.77721	33.02	6.0	0.00	-2.04	0.01740	0.01204	0.01523	0.01816	0.01882	0.01471	0.00548	0.01521	0.02017	0.01856	0.01286	0.01639	0.01714	0.01772	0.01384	0.00567	0.01598	0.02135
61060	3.83017	3.58513	3.17513	13.96258	12.53986	11.38231	25.28059	16.65795	10.11975	9.06206	8.79337	8.30191	8.30789	6.93458	5.95287	31.34821	22.53096	15.76980
61220	3.82861	3.58163	3.17047	13.96120	12.54019	11.38020	25.26764	16.65292	10.11911	9.06217	8.79265	8.30220	8.30942	6.93035	5.95213	31.40500	22.53084	15.76993
61390	3.83032	3.58391	3.17288	13.95998	12.54208	11.38300	25.24708	16.66444	10.11890	9.06284	8.79282	8.30245	8.31080	6.93184	5.95201	31.37906	22.52686	15.76984
61550	3.82489	3.58005	3.17112	13.95993	12.53767	11.37768	25.29680	16.65155	10.11704	9.05950	8.78916	8.29987	8.30875	6.93379	5.95009	31.36317	22.52965	15.76984
61720	3.82719	3.58355	3.17121	13.96284	12.54070	11.37982	25.27617	16.65284	10.11821	9.06078	8.79252	8.30060	8.31075	6.93170	5.95186	31.39771	22.52891	15.76946
61880	3.82986	3.58185	3.17294	13.96209	12.54101	11.37961	25.21486	16.66340	10.11718	9.05955	8.79149	8.29898	8.31272	6.93117	5.95408	31.37043	22.53065	15.77042
62050	3.82880	3.58507	3.17278	13.96129	12.53994	11.37772	25.25501	16.65508	10.12169	9.05960	8.78931	8.29823	8.30826	6.93243	5.95143	31.38270	22.52798	15.76875
62210	3.82615	3.58350	3.17436	13.95808	12.54010	11.37980	25.24767	16.66270	10.12298	9.06342	8.79179	8.30193	8.31110	6.93255	5.95060	31.37134	22.52698	15.77107
62380	3.82990	3.58311	3.16965	13.95864	12.53811	11.37766	25.28677	16.66727	10.11845	9.05783	8.78856	8.29715	8.31087	6.93074	5.95310	31.37407	22.52381	15.76575
62540	3.82746	3.58306	3.17071	13.95562	12.53690	11.37396	25.26059	16.65799	10.11923	9.05599	8.78458	8.29473	8.30891	6.92872	5.95478	31.37749	22.52063	15.76608	33.02	6.1	0.00	-2.04	0.01740	0.01204	0.01523	0.01816	0.01882	0.01471	0.00548	0.01521	0.02017	0.01856	0.01286	0.01639	0.01714	0.01772	0.01384	0.00567	0.01598	0.02135
62710	3.82439	3.58069	3.17399	13.95420	12.53590	11.37376	25.26382	16.66199	10.12165	9.05572	8.78447	8.29471	8.30769	6.93095	5.95013	31.33442	22.51741	15.76085
62870	3.82776	3.58199	3.17360	13.95358	12.53524	11.37277	25.23125	16.67040	10.11869	9.05469	8.78461	8.29453	8.30967	6.93262	5.95158	31.39841	22.51902	15.76172
63040	3.82581	3.58228	3.16970	13.94951	12.53185	11.36728	25.27206	16.65862	10.11265	9.04809	8.77846	8.28850	8.31020	6.93065	5.95386	31.35616	22.51436	15.75985
63200	3.83021	3.58588	3.17519	13.95083	12.53238	11.37014	25.28589	16.65404	10.11985	9.04990	8.78083	8.28852	8.30590	6.93217	5.94773	31.37749	22.51089	15.75830
63370	3.82756	3.58398	3.17501	13.95160	12.53310	11.37307	25.21662	16.66344	10.12393	9.05168	8.78307	8.29158	8.30967	6.93335	5.95531	31.37158	22.52144	15.75994
63530	3.82717	3.58521	3.17347	13.95033	12.53047	11.36941	25.30092	16.65841	10.11559	9.04977	8.78093	8.29002	8.30937	6.92740	5.95118	31.35117	22.51157	15.75696
63700	3.82574	3.58335	3.17272	13.94803	12.52835	11.36694	25.26853	16.65521	10.11511	9.04798	8.77908	8.28972	8.30851	6.93058	5.94996	31.34664	22.51517	15.75852
63860	3.82703	3.58309	3.17123	13.94971	12.52942	11.37054	25.23096	16.65808	10.11654	9.05023	8.77957	8.28997	8.30878	6.93155	5.94659	31.33487	22.51114	15.75770
64030	3.82590	3.58222	3.17062	13.94614	12.52860	11.36527	25.28707	16.65047	10.11298	9.04531	8.77603	8.28734	8.30732	6.92940	5.95138	31.35072	22.51306	15.75534
64190	3.82614	3.57954	3.17306	13.94885	12.52995	11.36732	25.29543	16.65052	10.11683	9.04714	8.77748	8.28665	8.30692	6.93129	5.95343	31.34950	22.51700	15.75677	32.97	6.0	0.00	-2.04	0.01740	0.01204	0.01523	0.01816	0.01882	0.01471	0.00548	0.01521	0.02017	0.01856	0.01286	0.01639	0.01714	0.01772	0.01384	0.00567	0.01598	0.02135
64360	3.82910	3.58343	3.17237	13.94925	12.52884	11.36671	25.24161	16.65675	10.11785	9.04687	8.77531	8.28525	8.30905	6.93436	5.95104	31.36491	22.50943	15.75510
64520	3.82882	3.58436	3.17374	13.94620	12.52738	11.36446	25.27216	16.65205	10.11802	9.04427	8.77510	8.28397	8.31077	6.93138	5.95173	31.35312	22.51005	15.75270
64690	3.82938	3.58390	3.17342	13.94575	12.52729	11.36440	25.27157	16.65293	10.11583	9.04412	8.77399	8.28384	8.30545	6.92953	5.95019	31.36038	22.51216	15.75293
64850	3.82630	3.58047	3.17257	13.94489	12.52695	11.36400	25.30546	16.65446	10.11191	9.04350	8.77531	8.28405	8.30480	6.92910	5.94770	31.37082	22.50936	15.75177
65020	3.82595	3.58462	3.17340	13.94599	12.52989	11.36492	25.26775	16.65214	10.11983	9.04553	8.77753	8.28654	8.31066	6.92923	5.95096	31.38854	22.51060	15.75335
65180	3.82334	3.57848	3.16916	13.94397	12.52500	11.36316	25.20736	16.66079	10.11266	9.04166	8.77175	8.28173	8.30911	6.93002	5.95243	31.36718	22.51364	15.75295
65350	3.82631	3.58286	3.17193	13.94444	12.52524	11.36173	25.24425	16.65467	10.12223	9.04155	8.77396	8.28159	8.30603	6.92864	5.94864	31.34497	22.50570	15.74882
65510	3.82296	3.58135	3.17217	13.93982	12.52115	11.35829	25.23018	16.64835	10.11613	9.03835	8.76944	8.27841	8.30973	6.92926	5.94985	31.33682	22.50130	15.74505
65680	3.82623	3.58432	3.17168	13.93843	12.52145	11.36050	25.25864	16.65130	10.11399	9.03953	8.77012	8.27905	8.30789	6.92957	5.95087	31.35584	22.50068	15.74755
65840	3.82575	3.58127	3.16934	13.93885	12.51935	11.35699	25.23249	16.64893	10.11051	9.03592	8.76630	8.27597	8.30820	6.93318	5.95128	31.34943	22.50585	15.74858	32.97	6.1	0.00	-2.04	0.01740	0.01204	0.01523	0.01816	0.01882	0.01471	0.00548	0.01521	0.02017	0.01856	0.01286	0.01639	0.01714	0.01772	0.01384	0.00567	0.01598	0.02135
66010	3.82519	3.58198	3.17044	13.93898	12.51994	11.35721	25.21083	16.64486	10.11372	9.03706	8.76831	8.27779	8.30670	6.92643	5.95024	31.31867	22.50170	15.74552
66170	3.82784	3.58374	3.17494	13.94072	12.52335	11.36247	25.28861	16.65654	10.11704	9.04067	8.77124	8.28026	8.30846	6.92914	5.95105	31.35396	22.50437	15.74727
66340	3.82600	3.58386	3.17310	13.93675	12.51959	11.35641	25.26919	16.64660	10.10942	9.03690	8.76786	8.27727	8.30467	6.92858	5.94846	31.33359	22.49873	15.74499
66500	3.82376	3.57978	3.16973	13.93656	12.51688	11.35663	25.28302	16.65155	10.11081	9.03502	8.76716	8.27626	8.30392	6.92359	5.94464	31.37801	22.49990	15.74305
66670	3.82287	3.58415	3.17504	13.93894	12.51957	11.35864	25.25185	16.65458	10.11642	9.03663	8.76782	8.27715	8.30583	6.92920	5.94867	31.37256	22.50375	15.74179
66830	3.82594	3.58056	3.17130	13.93392	12.51664	11.35337	25.23279	16.65043	10.11322	9.03160	8.76368	8.27275	8.30594	6.92845	5.94876	31.36213	22.50003	15.74179
66990	3.82511	3.58051	3.17157	13.93235	12.51418	11.35046	25.27978	16.64901	10.10972	9.03012	8.76205	8.27101	8.30540	6.93144	5.95239	31.36712	22.50344	15.74332
67160	3.82881	3.58257	3.17399	13.93520	12.51803	11.35476	25.27831	16.65163	10.11245	9.03184	8.76331	8.27307	8.30639	6.92914	5.95024	31.32771	22.49730	15.74104
67320	3.82391	3.58120	3.17163	13.93263	12.51688	11.35263	25.24129	16.65246	10.11105	9.03215	8.76410	8.27319	8.31184	6.92901	5.94803	31.32997	22.49588	15.73946
67490	3.82599	3.58126	3.17077	13.93010	12.51284	11.34970	25.31430	16.64938	10.11083	9.02788	8.75955	8.26983	8.30574	6.92967	5.94792	31.32910	22.50023	15.74164	32.97	6.1	0.00	-2.04	0.01740	0.01204	0.01523	0.01816	0.01882	0.01471	0.00548	0.01521	0.02017	0.01856	0.01286	0.01639	0.01714	0.01772	0.01384	0.00567	0.01598	0.02135
67650	3.82682	3.58341	3.17148	13.93225	12.51351	11.34948	25.25393	16.65158	10.11013	9.02974	8.76047	8.27023	8.30182	6.92668	5.94551	31.35309	22.49552	15.73689
67820	3.82303	3.58268	3.17244	13.93040	12.51084	11.34976	25.22256	16.64543	10.11400	9.02792	8.76154	8.26848	8.30365	6.92860	5.94789	31.35354	22.49100	15.73607
67980	3.82285	3.58035	3.16880	13.92675	12.50886	11.34615	25.23515	16.64709	10.11127	9.02536	8.75719	8.26604	8.30597	6.92687	5.94846	31.33000	22.49657	15.73574
68150	3.82377	3.58154	3.17203	13.92712	12.51052	11.34755	25.30928	16.65154	10.11110	9.02703	8.75773	8.26800	8.30007	6.92662	5.94785	31.35128	22.48988	15.73255
68310	3.82596	3.58010	3.17192	13.92697	12.51048	11.34918	25.23369	16.65362	10.11244	9.02748	8.75916	8.26855	8.30419	6.92713	5.94991	31.36261	22.49050	15.73651
68480	3.82444	3.57802	3.17036	13.92607	12.50619	11.34444	25.27156	16.64049	10.10745	9.02437	8.75532	8.26528	8.29861	6.92611	5.95020	31.33091	22.49787	15.73642
68640	3.82767	3.58291	3.17109	13.92783	12.50943	11.34649	25.25980	16.65029	10.11013	9.02549	8.75661	8.26669	8.30478	6.92887	5.94235	31.30968	22.49063	15.73184
68810	3.82608	3.58475	3.17491	13.92622	12.50901	11.34791	25.24571	16.65915	10.11658	9.02721	8.75949	8.26904	8.30286	6.92800	5.94773	31.32322	22.48784	15.73478
68970	3.82466	3.58005	3.16920	13.92414	12.50698	11.34438	25.24072	16.64232	10.11087	9.02410	8.75535	8.26476	8.30558	6.92814	5.94795	31.33000	22.49223	15.73534
69140	3.82485	3.58075	3.17233	13.92613	12.50903	11.34618	25.26036	16.65157	10.10977	9.02507	8.75493	8.26592	8.30388	6.92949	5.94925	31.34612	22.49305	15.73155	33.02	6.1	0.00	-2.04	0.01740	0.01204	0.01523	0.01816	0.01882	0.01471	0.00548	0.01521	0.02017	0.01856	0.01286	0.01639	0.01714	0.01773	0.01384	0.00567	0.01598	0.02135
69300	3.82318	3.57900	3.17021	13.92412	12.50624	11.34301	25.24304	16.64675	10.11358	9.02377	8.75458	8.26378	8.30079	6.92733	5.94944	31.34114	22.48940	15.73140
69460	3.82362	3.58086	3.16951	13.91908	12.50293	11.33904	25.31693	16.64177	10.10474	9.01990	8.74982	8.25947	8.30281	6.92562	5.94733	31.33119	22.48296	15.72847
69630	3.82412	3.57969	3.17088	13.91814	12.50230	11.33852	25.24304	16.65731	10.10768	9.02048	8.75089	8.26072	8.30492	6.92866	5.95278	31.34431	22.48940	15.72903
69800	3.82645	3.58068	3.17029	13.91872	12.50241	11.33940	25.25889	16.64800	10.11058	9.01988	8.74939	8.25993	8.30409	6.92857	5.94991	31.30229	22.48284	15.73062
69960	3.82593	3.57899	3.17082	13.92090	12.50334	11.34170	25.23161	16.64360	10.11198	9.02105	8.75059	8.26122	8.30387	6.92317	5.94753	31.32080	22.48531	15.72761
70120	3.82447	3.58101	3.17426	13.91825	12.50469	11.34319	25.31338	16.64459	10.11265	9.02312	8.75360	8.26306	8.30363	6.92698	5.94491	31.34522	22.48327	15.72942
70290	3.82431	3.57958	3.16920	13.91807	12.50221	11.33830	25.25273	16.64368	10.10928	9.01971	8.74998	8.25984	8.30104	6.92415	5.94180	31.34160	22.48241	15.72790
70450	3.82655	3.58100	3.17005	13.91677	12.50001	11.33894	25.25713	16.64048	10.10566	9.01883	8.74855	8.25853	8.29982	6.92476	5.94684	31.32305	22.48105	15.72610
70620	3.82514	3.58182	3.16314	13.91486	12.49844	11.33649	25.31220	16.64821	10.11020	9.01747	8.74766	8.25879	8.30287	6.92833	5.94169	31.33074	22.47870	15.72435
70780	3.82509	3.58094	3.17172	13.91437	12.49933	11.33751	25.25486	16.64315	10.10702	9.01724	8.74832	8.25766	8.30422	6.92463	5.94571	31.31176	22.47490	15.72551	33.02	6.1	0.00	-2.04	0.01740	0.01204	0.01523	0.01816	0.01882	0.01471	0.00548	0.01521	0.02017	0.01856	0.01286	0.01639	0.01714	0.01772	0.01384	0.00567	0.01598	0.02135
70950	3.82373	3.57791	3.17041	13.91550	12.49694	11.33571	25.23462	16.64813	10.11008	9.01719	8.74676	8.25705	8.30196	6.92426	5.94534	31.32260	22.48436	15.72555
71110	3.82546	3.57822	3.17034	13.91392	12.49694	11.33729	25.22261	16.64564	10.11069	9.01559	8.74784	8.25764	8.30116	6.92500	5.94677	31.30274	22.47904	15.72004
71280	3.82614	3.58095	3.17348	13.91473	12.49776	11.33749	25.24488	16.65353	10.11455	9.01768	8.74692	8.25835	8.30301	6.92502	5.94676	31.34929	22.48090	15.72327
71440	3.82620	3.57787	3.16915	13.91124	12.49609	11.33254	25.24400	16.64830	10.10759	9.01334	8.74367	8.25472	8.30683	6.92529	5.94742	31.31718	22.47910	15.72493
71610	3.82717	3.58205	3.17031	13.91248	12.49470	11.33468	25.27484	16.64826	10.11293	9.01439	8.74519	8.25607	8.29986	6.92390	5.94407	31.31628	22.47910	15.71991
71770	3.82649	3.57990	3.17271	13.90826	12.49323	11.33214	25.25016	16.64497	10.11449	9.01254	8.74343	8.25391	8.30444	6.92350	5.94704	31.30049	22.47706	15.71922
71940	3.82383	3.57723	3.17336	13.90869	12.49485	11.33222	25.21910	16.65254	10.11268	9.01387	8.74428	8.25596	8.30195	6.92739	5.94572	31.36471	22.47416	15.71995
72100	3.82438	3.57995	3.17336	13.91027	12.49405	11.33410	25.23081	16.65008	10.11601	9.01351	8.74454	8.25474	8.30545	6.92797	5.94786	31.32938	22.47954	15.71969
72270	3.82356	3.57745	3.16999	13.90854	12.49360	11.33314	25.26367	16.65108	10.11330	9.01298	8.74269	8.25401	8.30604	6.92506	5.94666	31.30725	22.47453	15.72042
72430	3.82437	3.57860	3.17157	13.91016	12.49595	11.33376	25.28236	16.65358	10.11475	9.01392	8.74599	8.25583	8.30425	6.92615	5.94661	31.31371	22.47379	15.72005	33.02	6.2	0.00	-2.04	0.01740	0.01204	0.01523	0.01816	0.01882	0.01471	0.00548	0.01521	0.02017	0.01856	0.01286	0.01639	0.01714	0.01773	0.01384	0.00567	0.01598	0.02135
72600	3.82454	3.58210	3.17263	13.90577	12.49365	11.33166	25.27647	16.65333	10.11316	9.01292	8.74416	8.25473	8.30517	6.92808	5.94752	31.31325	22.47607	15.71781
72760	3.82541	3.57629	3.17052	13.90493	12.48978	11.32865	25.28795	16.64992	10.10824	9.00854	8.74023	8.25100	8.30246	6.92626	5.94516	31.32861	22.47725	15.71414
72920	3.82793	3.57895	3.17117	13.90483	12.48992	11.32799	25.26088	16.65146	10.10998	9.00826	8.74056	8.25038	8.30255	6.92319	5.94512	31.31010	22.46804	15.71310
73090	3.82130	3.57954	3.17111	13.90168	12.48704	11.32567	25.20258	16.64535	10.11020	9.00643	8.73866	8.24798	8.30132	6.92554	5.94654	31.33404	22.47255	15.71478
73250	3.82332	3.57980	3.16918	13.90172	12.48548	11.32453	25.19207	16.64278	10.10895	9.00600	8.73514	8.24790	8.30032	6.92235	5.94481	31.30784	22.46786	15.70868
73420	3.82376	3.58017	3.17262	13.90286	12.48930	11.32952	25.23184	16.64722	10.11737	9.00927	8.73934	8.25117	8.30421	6.92581	5.94661	31.31190	22.46965	15.71544
73580	3.82494	3.57793	3.16941	13.90134	12.48592	11.32507	25.27735	16.64672	10.10793	9.00597	8.73617	8.24816	8.30079	6.92733	5.94622	31.32997	22.47002	15.71345
