WetView ver 7.1	07-14-2018	13:42:06
AC9 Absorption and Attenuation Meter
00000266		; Serial number
2	; structure version number
Reserved
0.000000	0.000000		; Depth calibration
19200			; Baud rate
0.100000			; Path length (meters)
31			; number of temperature calibration bins
				12.59339	13.44920	14.48425	15.49668	16.50852	17.49564	18.50545	19.52458	20.50176	21.48889	22.47318	23.48707	24.50962	25.49370	26.49784	27.51372	28.50746	29.47237	30.47938	31.50214	32.50470	33.49235	34.50337	35.50914	36.50618	37.52058	38.51018	39.51308	40.49994	41.49866	42.47204	; temperature bins
a650	Blue	20.34952		-0.00383	-0.00415	-0.00430	-0.00391	-0.00363	-0.00317	-0.00269	-0.00237	-0.00179	-0.00130	-0.00099	-0.00071	-0.00015	0.00000	0.00004	-0.00001	0.00015	0.00036	0.00058	0.00101	0.00161	0.00132	0.00160	0.00169	0.00242	0.00273	0.00336	0.00365	0.00427	0.00566	0.00670		; offset and temperature correction info
a676	Green	20.51193		-0.00398	-0.00384	-0.00360	-0.00306	-0.00302	-0.00255	-0.00235	-0.00212	-0.00163	-0.00136	-0.00118	-0.00089	-0.00029	0.00000	0.00068	0.00082	0.00099	0.00137	0.00145	0.00212	0.00260	0.00252	0.00321	0.00354	0.00457	0.00535	0.00617	0.00648	0.00742	0.00887	0.01002		; offset and temperature correction info
a715	Brown	20.23230		-0.00421	-0.00394	-0.00391	-0.00291	-0.00264	-0.00192	-0.00204	-0.00179	-0.00188	-0.00239	-0.00180	-0.00187	-0.00099	0.00000	0.00084	0.00162	0.00188	0.00224	0.00321	0.00381	0.00466	0.00528	0.00588	0.00696	0.00859	0.01041	0.01148	0.01282	0.01333	0.01456	0.01617		; offset and temperature correction info
c510	Red	20.40042		-0.00261	-0.00247	-0.00258	-0.00225	-0.00203	-0.00197	-0.00199	-0.00203	-0.00154	-0.00103	-0.00069	-0.00019	-0.00007	0.00000	0.00011	-0.00021	-0.00042	-0.00056	-0.00040	0.00011	0.00036	0.00050	0.00077	0.00079	0.00050	0.00042	0.00043	0.00092	0.00147	0.00200	0.00232		; offset and temperature correction info
c532	Magenta	20.40760		-0.00248	-0.00265	-0.00278	-0.00279	-0.00296	-0.00292	-0.00238	-0.00206	-0.00129	-0.00096	-0.00092	-0.00052	-0.00009	0.00000	0.00007	-0.00049	-0.00136	-0.00107	-0.00079	-0.00065	-0.00074	-0.00105	-0.00152	-0.00192	-0.00236	-0.00269	-0.00252	-0.00233	-0.00172	-0.00128	-0.00067		; offset and temperature correction info
c555	Black	20.50654		-0.00053	-0.00063	-0.00106	-0.00094	-0.00068	-0.00055	-0.00053	-0.00039	-0.00028	-0.00025	-0.00011	-0.00035	-0.00007	0.00000	-0.00037	-0.00055	-0.00036	-0.00014	0.00019	0.00044	0.00032	0.00040	0.00050	0.00028	0.00014	0.00013	0.00030	0.00073	0.00117	0.00176	0.00241		; offset and temperature correction info
a412	LtBlue	17.15231		-0.01972	-0.01823	-0.01612	-0.01381	-0.01272	-0.01080	-0.00959	-0.00866	-0.00710	-0.00532	-0.00354	-0.00148	-0.00028	0.00000	0.00176	0.00297	0.00394	0.00440	0.00453	0.00487	0.00804	0.00856	0.01065	0.01248	0.01388	0.01439	0.01659	0.01881	0.02256	0.02450	0.02719		; offset and temperature correction info
a440	LtGreen	18.00171		-0.00729	-0.00642	-0.00581	-0.00502	-0.00426	-0.00349	-0.00244	-0.00218	-0.00179	-0.00101	-0.00046	-0.00006	0.00036	0.00000	0.00040	0.00045	0.00030	-0.00015	-0.00024	-0.00035	0.00012	-0.00013	-0.00033	-0.00089	-0.00142	-0.00189	-0.00231	-0.00205	-0.00140	-0.00140	-0.00146		; offset and temperature correction info
a488	Yellow	18.86491		-0.00113	-0.00102	-0.00106	-0.00064	-0.00027	-0.00020	-0.00030	-0.00037	-0.00047	-0.00059	-0.00052	-0.00012	0.00008	0.00000	0.00025	0.00012	-0.00013	-0.00043	-0.00065	-0.00076	-0.00025	0.00010	0.00090	0.00111	0.00113	0.00104	0.00073	0.00068	0.00120	0.00186	0.00258		; offset and temperature correction info
c650	Blue	20.46075		-0.00145	-0.00097	-0.00092	-0.00139	-0.00185	-0.00196	-0.00237	-0.00266	-0.00238	-0.00163	-0.00083	-0.00041	-0.00010	0.00000	0.00005	-0.00001	0.00015	0.00034	0.00029	0.00065	0.00101	0.00164	0.00126	0.00156	0.00175	0.00270	0.00287	0.00371	0.00407	0.00473	0.00534		; offset and temperature correction info
c676	Green	20.10118		-0.00170	-0.00144	-0.00149	-0.00177	-0.00188	-0.00194	-0.00198	-0.00196	-0.00177	-0.00156	-0.00140	-0.00091	-0.00033	0.00000	0.00050	0.00092	0.00110	0.00141	0.00167	0.00199	0.00216	0.00265	0.00269	0.00289	0.00315	0.00374	0.00367	0.00408	0.00486	0.00561	0.00646		; offset and temperature correction info
c715	Brown	19.91219		-0.01201	-0.01097	-0.00859	-0.00680	-0.00651	-0.00592	-0.00535	-0.00440	-0.00387	-0.00303	-0.00222	-0.00153	-0.00028	0.00000	0.00093	0.00149	0.00247	0.00322	0.00330	0.00427	0.00373	0.00464	0.00536	0.00551	0.00643	0.00733	0.00779	0.00884	0.00899	0.01021	0.01120		; offset and temperature correction info
a510	Red	19.21192		0.00201	0.00193	0.00158	0.00098	0.00089	0.00049	0.00011	-0.00016	-0.00016	-0.00005	0.00028	0.00025	0.00006	0.00000	0.00035	-0.00022	-0.00023	-0.00080	-0.00144	-0.00154	-0.00153	-0.00204	-0.00220	-0.00219	-0.00190	-0.00128	-0.00069	-0.00018	0.00068	0.00152	0.00241		; offset and temperature correction info
a532	Magenta	19.41084		-0.00097	-0.00072	-0.00060	-0.00081	-0.00062	-0.00071	-0.00040	0.00020	0.00028	0.00043	0.00000	-0.00035	0.00007	0.00000	-0.00011	-0.00059	-0.00080	-0.00098	-0.00137	-0.00162	-0.00163	-0.00130	-0.00073	-0.00018	0.00090	0.00185	0.00175	0.00247	0.00291	0.00327	0.00349		; offset and temperature correction info
a555	Black	19.69776		0.00171	0.00183	0.00183	0.00186	0.00191	0.00170	0.00115	0.00131	0.00097	0.00073	0.00060	0.00013	0.00015	0.00000	0.00014	-0.00029	-0.00066	-0.00082	-0.00116	-0.00139	-0.00134	-0.00167	-0.00119	-0.00093	-0.00048	0.00053	0.00111	0.00095	0.00178	0.00206	0.00273		; offset and temperature correction info
c412	LtBlue	19.91180		-0.02051	-0.01853	-0.01589	-0.01311	-0.01059	-0.00877	-0.00705	-0.00581	-0.00413	-0.00231	-0.00098	-0.00066	-0.00011	0.00000	-0.00013	-0.00085	-0.00170	-0.00170	-0.00302	-0.00330	-0.00429	-0.00551	-0.00626	-0.00775	-0.00978	-0.01181	-0.01113	-0.01108	-0.01116	-0.01192	-0.01291		; offset and temperature correction info
c440	LtGreen	20.06241		-0.01064	-0.00992	-0.00892	-0.00766	-0.00639	-0.00531	-0.00478	-0.00384	-0.00287	-0.00187	-0.00102	-0.00063	-0.00023	0.00000	-0.00007	-0.00053	-0.00090	-0.00119	-0.00169	-0.00197	-0.00226	-0.00257	-0.00260	-0.00289	-0.00394	-0.00470	-0.00481	-0.00493	-0.00520	-0.00580	-0.00620		; offset and temperature correction info
c488	Yellow	20.35984		-0.01125	-0.01082	-0.00966	-0.00833	-0.00726	-0.00661	-0.00579	-0.00500	-0.00389	-0.00278	-0.00167	-0.00113	-0.00041	0.00000	0.00055	0.00121	0.00187	0.00226	0.00222	0.00251	0.00281	0.00359	0.00414	0.00427	0.00401	0.00404	0.00486	0.00563	0.00638	0.00684	0.00718		; offset and temperature correction info
0.003500	0.004000	0.015000	0.020000	0.015000	0.020000	2500.000000	2000.000000	1000.000000	; maxANoise	maxCNoise	maxADifference	maxCDifference	minACounts	minCCounts	minRCounts	maxTempSdev	maxDepthSdev
0			; auxilliary capabilities
1			; acquisition binsize
0	4.46587	4.99986	4.27903	10.89354	10.05176	7.52278	35.65773	23.12522	14.74060	5.01605	6.79716	5.67066	11.06779	8.89589	7.70410	37.97628	25.25811	16.21841	31.19	6.1	0.00	7.56	0.01265	0.01288	0.01628	0.00780	0.00580	0.00637	0.00466	0.01263	0.01677	0.00678	0.00696	0.00880	0.01485	0.01091	0.01193	0.00218	0.00619	0.00867
160	5.01217	3.95520	2.61248	12.66121	9.82445	7.22461	34.78226	23.64853	14.43289	4.11543	4.46929	5.19686	10.75817	9.16455	7.15112	37.58484	28.60763	14.03424
320	6.31995	4.93908	3.74001	10.48127	7.77723	7.12214	38.26762	27.21392	14.63120	3.88313	2.65575	3.16026	11.38923	10.91670	8.68157	34.67090	22.74096	12.48095
490	4.47041	3.50948	2.74013	10.03047	8.03832	7.97121	35.90329	24.65348	14.46358	3.96861	4.69170	3.63534	12.46291	10.86036	10.12655	33.92940	23.60982	15.93773
650	6.23448	4.61412	3.33380	11.20161	9.03739	8.44518	34.26701	23.48869	12.75490	5.98615	5.21683	3.93647	11.09938	8.57197	7.56785	34.31517	23.12311	12.43741
810	3.30058	3.33967	2.24060	10.22982	9.01865	7.21374	35.40058	23.72310	12.34604	4.41870	4.28820	4.57078	12.05799	10.05296	8.05502	37.39159	26.97249	15.11880
980	4.78075	3.68201	2.45963	11.92073	9.66300	8.66106	36.77348	23.40376	12.90564	7.32451	4.55199	3.66866	10.10769	8.73958	8.42617	34.12212	22.78030	15.44295
1140	5.76430	3.76894	3.26016	10.48658	8.52880	7.34557	36.67207	23.78896	13.64626	4.53707	2.70151	3.20738	11.36002	7.99288	9.04166	37.47983	25.06508	12.26196
1300	7.22471	5.63332	4.25807	10.28415	8.41940	7.25885	37.65585	23.46617	12.46260	3.33947	2.46779	2.23847	11.52944	8.98861	8.31419	34.10291	23.38878	14.19353
1470	4.41340	3.40640	2.48380	10.02611	9.51862	10.10663	35.01921	22.77907	13.01627	5.12942	4.01239	3.28659	10.72462	10.79816	7.26840	34.68526	22.80333	12.99889
1630	4.56535	3.05887	2.56434	11.79443	12.10463	8.27861	37.19179	26.14334	12.87662	3.66371	3.19799	2.02968	12.20284	11.13439	9.00596	33.95823	22.97416	13.23962	31.19	6.1	0.00	7.65	0.01266	0.01288	0.01628	0.00780	0.00580	0.00637	0.00466	0.01263	0.01677	0.00678	0.00697	0.00880	0.01485	0.01091	0.01193	0.00218	0.00619	0.00867
1790	6.65023	3.50019	2.11562	10.03067	8.25350	6.71827	35.94295	25.21831	13.77499	4.14260	5.26505	3.96044	11.02148	8.43800	7.49087	34.19351	23.80573	12.96545
1960	3.66625	2.51701	1.91983	11.37595	9.90192	7.80653	34.57399	26.03843	14.82982	4.43943	3.13344	2.54042	10.96630	9.90400	8.48678	34.75458	24.76164	13.20903
2120	4.43965	3.06469	2.14630	11.12757	10.54904	9.03153	34.36729	23.59104	12.47748	5.44998	5.30489	5.61755	10.40067	7.90493	6.58581	34.89533	23.65583	13.31695
2280	4.50558	2.99204	3.31245	12.50208	11.65254	7.81281	34.30880	22.50387	12.64435	4.07173	2.90221	3.66780	10.21020	7.80154	6.39879	34.88556	24.80532	14.63865
2450	4.72830	3.62495	2.66705	10.67357	9.26166	8.38577	35.71446	24.94360	13.49645	3.14138	2.66111	2.12492	10.99959	9.36742	7.65216	33.97716	22.83995	14.19954
2610	3.17945	3.20904	2.37108	10.12818	9.30271	7.83886	34.89152	23.27249	17.70695	4.63927	4.41173	4.58810	12.56395	9.79380	7.58715	34.74495	22.54012	12.51047
2770	4.44739	3.08308	2.21405	11.97242	9.04116	6.92509	36.43466	24.25324	13.88343	3.56538	2.49579	2.16145	10.28187	10.49755	9.09652	34.69093	22.94998	13.31855
2940	6.13680	5.56593	2.56224	9.75573	7.92277	6.73076	35.07947	23.50476	13.43314	3.05069	3.82353	4.10921	11.93602	11.25301	7.98090	34.34501	22.65000	12.58819
3100	4.75962	4.05538	2.27672	9.65376	7.74831	6.34071	34.36872	22.68501	12.39827	2.94610	2.39185	1.99144	9.65819	7.93435	7.18257	33.84759	22.17205	12.05126
3260	3.28938	2.98410	3.27884	10.19680	9.53417	6.48435	34.63377	22.89466	13.39850	3.31423	3.56787	3.50379	10.76098	9.59442	7.35111	34.77093	22.76873	12.36278	31.25	6.1	0.00	7.57	0.01266	0.01288	0.01628	0.00780	0.00580	0.00637	0.00466	0.01263	0.01677	0.00678	0.00696	0.00879	0.01485	0.01091	0.01193	0.00218	0.00619	0.00867
3430	4.05248	2.89028	2.27929	9.87981	8.33547	7.06895	34.86565	24.50189	13.79689	3.13897	3.49259	5.08212	13.45853	10.04876	10.20471	40.05901	24.46630	14.16172
3590	4.39556	2.92023	2.70833	14.52979	8.40733	8.44171	34.68164	23.94451	13.03731	4.60082	4.33177	3.66980	11.14352	8.67765	8.89286	39.61832	23.29105	14.14959
3750	3.68938	3.22083	3.28898	10.37186	8.91882	8.58980	34.82288	23.09181	13.50443	3.54104	3.55930	4.47190	11.08739	8.44338	7.63655	38.02906	25.59671	14.94128
3920	3.77510	3.28870	3.21874	13.53768	13.25091	9.14757	35.14083	23.47079	13.59536	9.15846	6.78452	7.20676	12.59659	10.01753	8.89327	36.53927	22.53908	12.41105
4080	3.90338	3.31472	3.44684	9.72509	8.18555	6.78121	37.07362	25.44014	14.23783	3.99149	2.92915	2.05450	11.91237	10.32356	8.18387	34.18956	22.48190	14.18461
4240	3.43708	2.95581	2.13493	13.53603	12.07994	9.52154	36.95895	24.39829	14.54028	4.87506	4.22825	4.11054	11.17575	10.21794	8.81683	34.94133	22.90813	14.47784
4410	4.01852	3.12993	4.52996	15.51287	8.36064	7.13082	35.25040	23.96830	15.14449	4.77922	3.64537	4.08782	10.13926	8.33280	6.58280	35.44484	24.05069	14.10537
4570	3.06964	2.52770	1.91452	10.05865	8.29817	8.11204	34.84387	24.19075	12.94981	7.54189	5.19396	3.18319	10.84599	7.94254	6.51190	37.33645	23.25787	13.72893
4730	4.06344	3.20053	2.65322	13.03500	17.44030	15.36996	35.10919	23.12483	12.73115	7.29784	5.19040	5.26432	11.01653	8.58602	7.43562	36.93141	23.72428	12.89370
4900	3.79149	4.02773	3.15712	10.40260	8.60652	6.85853	35.41158	24.39975	13.10716	3.47415	2.99561	2.85179	12.04029	9.14250	6.89878	37.59524	24.24171	14.58969	31.25	6.2	0.00	7.56	0.01266	0.01288	0.01628	0.00780	0.00580	0.00637	0.00466	0.01263	0.01677	0.00678	0.00696	0.00880	0.01485	0.01091	0.01192	0.00218	0.00619	0.00867
5060	4.09810	3.46199	3.02922	16.93225	15.58027	11.77211	34.31723	22.82346	12.43130	5.13225	3.25375	2.31453	10.42898	8.25075	6.97443	33.79740	22.24767	12.26115
5220	3.52676	3.37846	2.88952	11.70258	8.02593	7.06346	36.45989	25.01740	14.13055	3.57160	5.03990	3.93456	11.78140	10.25340	7.21837	34.90225	23.41812	13.74685
5390	4.93164	3.67104	2.04599	12.79396	11.12632	9.68473	34.55498	23.39619	14.11732	8.39305	5.89444	3.98494	11.66847	10.81780	8.47210	37.61448	25.91043	15.74831
5550	5.39663	5.78058	4.03931	11.81007	10.17754	7.56588	36.45460	26.07016	15.66657	3.40038	4.16549	2.44063	11.78984	10.08560	10.26624	34.07954	24.68753	16.31599
5710	4.93306	3.10935	3.88986	11.23174	9.38431	7.49021	36.04098	24.98556	14.02303	4.18717	4.83247	3.88454	11.49511	8.54910	7.05162	34.08856	22.78887	13.51669
5880	4.43779	2.96809	3.00915	12.10223	9.00185	7.22673	37.17650	25.27162	15.15153	10.06881	5.17721	4.45645	10.49648	9.56276	9.18191	41.22740	24.59804	13.92093
6040	5.58820	3.63134	2.39030	17.57106	15.74958	9.57187	35.99625	23.48139	12.83541	9.57593	7.82809	4.27178	11.00380	11.02418	7.85941	34.02897	22.40291	12.57102
6200	5.96038	5.47268	4.21829	10.33708	8.44694	7.94066	35.23834	23.11611	12.98756	3.46904	3.50816	2.33373	11.06986	8.50841	8.31402	35.93074	27.06865	16.15200
6370	4.37274	4.31727	3.32448	14.18669	10.05875	7.17510	35.42191	27.42227	16.99845	3.75041	2.98603	2.90072	13.10989	9.47091	7.90286	34.19512	22.75038	13.26411
6530	4.36220	3.62664	2.85122	10.03652	8.80846	7.51938	36.04582	25.48980	15.55279	5.48332	3.33538	2.18792	11.26136	10.43436	7.00543	34.20291	22.63957	14.45064	31.19	6.1	0.00	7.66	0.01266	0.01288	0.01628	0.00780	0.00580	0.00637	0.00466	0.01263	0.01677	0.00678	0.00696	0.00879	0.01485	0.01091	0.01193	0.00218	0.00619	0.00867
6690	5.40832	6.60413	4.48048	9.68509	9.81422	8.62100	34.91928	24.70199	14.79789	6.98646	2.99429	7.31716	12.06245	8.78016	7.37171	35.48021	26.10529	14.03326
6860	4.72673	3.36550	2.65494	14.64575	10.95847	10.28706	34.78409	23.33012	12.54870	5.77625	6.95758	7.22875	10.36473	8.45176	7.36970	34.16192	22.74603	12.48801
7020	3.47440	2.77319	2.38581	10.07210	8.16453	6.44566	35.14100	22.70686	12.52217	4.70523	4.40777	3.16772	10.51910	8.13352	6.87723	34.90834	23.18333	12.53527
7180	4.27351	3.85470	2.73572	11.37841	8.63490	7.48981	34.83195	22.69674	12.68965	3.88669	3.28080	2.71849	10.08245	8.05041	6.66455	34.26242	22.54866	12.46119
7350	3.17325	2.61891	2.18791	10.79083	9.51554	7.25013	35.15725	24.07533	13.80369	3.74823	3.72045	3.24953	10.32278	8.12454	6.73007	35.57398	23.67692	13.55081
7510	3.16765	2.75978	2.09061	10.71160	8.32440	7.17869	35.08780	23.73607	13.55894	3.08286	2.70440	2.24652	11.24374	9.27115	7.24020	33.97730	22.53225	13.43861
7670	4.99622	4.24421	3.97602	9.80747	8.76579	6.77448	37.75560	23.65292	14.10951	3.70394	2.84157	2.22521	11.68769	8.91436	7.18604	34.77094	23.74111	12.88831
7840	3.79160	4.47894	3.53646	10.35341	9.29672	7.23320	34.89964	23.81317	13.69900	3.93418	4.44102	3.92819	11.01855	9.32750	7.99718	33.97953	22.31474	12.18256
8000	3.17086	2.40320	1.89203	9.66015	7.88670	9.84664	34.49441	23.75099	13.25092	3.31372	3.07490	3.23296	11.34560	9.00510	7.38656	39.53227	22.76418	12.17871
8160	4.17865	3.31849	2.84137	11.62885	9.84430	9.24982	35.32644	23.75244	14.75524	3.58615	3.20411	2.68623	13.35002	9.49000	7.78546	38.02751	26.38530	14.85778	31.25	6.1	0.00	7.59	0.01266	0.01288	0.01628	0.00780	0.00580	0.00637	0.00466	0.01263	0.01677	0.00678	0.00697	0.00879	0.01485	0.01091	0.01193	0.00218	0.00619	0.00867
8330	5.09914	3.61015	2.29339	12.74968	10.39070	7.90132	35.03154	22.94659	12.68104	5.85433	5.62890	6.91368	10.08060	8.23918	6.82095	37.74227	23.93562	12.87188
8490	3.07521	2.78049	2.01288	10.63247	9.46797	7.10733	34.71616	23.21110	12.57057	4.28943	4.33073	3.22509	9.75947	8.22870	7.38741	34.24354	22.77581	12.62153
8650	3.72555	2.91088	2.42299	10.44252	8.32047	6.74814	36.95668	23.51650	13.51938	4.08611	3.23376	2.72549	10.58280	9.46598	8.46606	34.34602	23.45941	13.15012
8820	3.36212	2.73786	3.44798	10.78373	8.22720	7.99828	35.05221	22.87003	12.81192	4.23847	2.98537	3.63724	10.06337	9.11980	7.25904	34.66112	22.83560	13.55277
8980	5.85803	4.93428	4.23546	10.89986	8.53650	6.97751	37.00686	24.62357	15.15975	3.62830	2.80742	2.58243	9.90578	7.99111	6.72320	34.63607	23.09989	13.83897
9140	3.69160	3.36974	2.38187	10.24439	8.53585	9.09987	35.23315	22.62806	12.36074	4.35642	3.93966	4.69826	10.05583	8.20333	7.02355	38.78830	27.46005	16.22403
9310	3.59296	2.73755	2.10321	15.32098	9.43687	8.21906	34.84142	23.76058	13.08525	9.13792	5.30688	5.48748	12.19589	9.27316	7.90713	34.97907	23.68617	12.94157
9470	4.09282	4.20303	3.53200	10.12998	9.19292	7.39113	38.93705	27.05007	16.26327	4.57717	3.26192	2.73759	14.25560	11.25843	9.85089	35.42667	24.63151	13.85708
9630	4.52943	4.31161	2.01434	10.98955	8.59380	7.22569	36.29144	25.28264	14.31415	4.77732	2.68494	2.97934	10.01376	8.55245	7.12943	35.03843	23.69212	12.91580
9800	4.19118	3.64070	4.05998	10.57015	8.04211	6.87380	35.87213	26.33917	14.27638	3.36283	3.11785	1.82895	12.14814	12.21880	10.66362	33.98177	22.74571	12.96155	31.25	6.1	0.00	7.62	0.01265	0.01288	0.01628	0.00780	0.00580	0.00637	0.00466	0.01263	0.01677	0.00678	0.00697	0.00879	0.01485	0.01091	0.01193	0.00218	0.00619	0.00867
9960	6.53739	4.56361	2.71231	13.37927	11.68163	7.75862	35.54657	23.09807	12.28465	5.51046	5.35250	4.81071	11.75361	8.04479	7.76022	36.53037	24.28527	13.85530
10120	5.39553	3.97072	3.39260	10.20500	7.99692	6.70866	37.45627	25.54041	15.11714	3.62463	3.05584	9.33351	11.41507	8.89621	9.63341	35.87824	23.11826	16.98921
10280	4.28785	4.24861	4.38529	9.88582	8.37415	7.83766	35.89877	26.84813	17.29512	3.10477	2.53338	2.14067	12.24193	9.50547	7.05458	34.70716	25.38207	12.65381
10450	3.57772	3.56544	2.63827	9.91679	8.00043	8.28680	35.02137	23.41985	13.03766	4.03074	3.57846	4.95217	11.87105	8.19405	7.22091	35.40146	23.25540	13.83891
10610	3.53285	2.68249	2.22088	11.73508	10.01376	8.78609	35.69005	23.65109	13.62450	3.43723	3.33638	3.62146	10.37472	8.61923	7.39120	34.73479	23.13868	13.93877
10780	3.12081	2.56389	2.43977	10.41906	8.25954	7.22666	34.46804	22.58978	12.24646	4.22751	2.69523	1.91493	9.90485	8.77846	7.16036	34.19153	22.70412	12.85542
10940	5.11684	3.37616	2.93275	9.71494	8.89577	7.86196	35.34026	23.36321	13.58395	3.44444	3.06244	2.69963	10.00955	9.73274	7.87924	34.42442	22.66282	12.44827
11100	3.15569	3.86423	3.88583	10.60679	9.11182	7.21360	35.07420	27.07629	14.95413	4.24383	8.66715	4.04197	11.47146	11.60410	11.20294	39.90259	27.69840	17.81362
11270	6.46948	6.37387	5.69543	11.16375	8.81002	7.85196	36.30456	23.32753	14.66733	8.27051	6.63111	8.08655	13.09557	10.42234	10.13023	38.44820	27.64708	17.45526
11430	6.91240	6.33965	4.33239	15.59323	10.97439	13.49502	34.96130	23.13643	13.28802	6.49368	4.48505	2.67794	10.13092	8.15987	6.44527	34.70036	24.10217	12.64039	31.25	6.1	0.00	7.64	0.01265	0.01288	0.01627	0.00780	0.00580	0.00637	0.00466	0.01263	0.01677	0.00678	0.00697	0.00879	0.01485	0.01091	0.01193	0.00218	0.00619	0.00867
11590	3.45373	2.86362	4.26456	12.38039	9.31334	9.25828	36.59525	25.13229	14.72791	5.20937	3.71089	3.66065	10.80789	8.96591	6.86853	35.66857	23.45398	13.28359
11760	3.90606	4.03285	2.85990	10.56698	8.75671	7.51446	37.50846	24.96599	13.94083	3.35120	2.67904	1.98263	10.40722	8.08794	6.64833	34.50102	23.13622	13.10899
11920	3.16607	3.14422	2.46450	10.52835	9.41066	10.04013	36.09641	24.11601	13.52979	5.38370	4.71331	5.94162	11.66851	10.38538	7.31945	35.72418	26.72720	16.51960
12080	4.60368	3.77642	3.78303	15.67738	11.62046	9.11157	37.53888	24.96798	13.71709	3.48876	2.49994	1.86134	10.78538	9.50243	7.67919	34.62157	23.90725	13.64025
12250	4.91827	3.15729	3.89097	12.22676	9.69370	7.75977	35.81128	24.27829	13.65755	4.37211	4.09445	3.79118	10.97931	8.96783	7.70702	34.46935	22.37444	12.25941
12410	4.63970	4.99859	4.91436	9.92701	8.22645	6.54149	35.81955	24.59973	13.92713	3.28393	3.59793	3.27096	12.26330	9.73933	8.51295	34.62395	23.46480	12.94083
12570	4.25508	2.83703	3.40427	9.73138	7.81681	6.87964	36.32704	23.22741	12.62545	2.91559	4.65609	3.86339	10.63126	8.50436	7.01025	37.10740	28.43596	17.34864
12730	3.51996	3.19739	4.28906	13.95880	10.10147	11.33041	36.43293	25.75747	14.82265	4.75426	5.43518	4.17936	11.29077	8.27518	7.04383	34.50102	23.00020	12.92610
12900	2.98067	2.43094	2.01604	12.53363	8.61515	8.80342	34.54992	22.64048	13.42382	3.41391	2.41822	1.77010	10.40667	8.24312	6.93864	33.82975	22.40335	12.60381
13060	3.39232	3.03925	2.55835	10.32269	8.39776	6.86550	34.64780	22.84860	12.53872	3.24244	3.02077	2.93185	10.83420	8.27879	6.47705	34.56254	23.08255	12.94193	31.19	6.1	0.00	7.54	0.01265	0.01288	0.01627	0.00780	0.00580	0.00637	0.00466	0.01262	0.01676	0.00678	0.00697	0.00879	0.01485	0.01091	0.01193	0.00218	0.00619	0.00867
13230	4.68616	4.75128	5.31537	10.58311	8.54503	7.61692	35.34446	24.66178	12.92628	3.15295	2.35628	2.03314	10.91889	9.04607	7.09042	34.15801	22.39089	12.48183
13390	5.63837	3.45622	4.15690	9.67060	7.86626	6.50966	36.48634	24.75670	14.85703	4.14135	2.67941	2.84368	11.25509	9.07922	7.00664	35.05719	24.14908	14.06296
13550	5.10360	5.69832	3.72792	11.32400	9.10733	7.20323	37.88188	25.33679	15.32340	4.25906	3.98747	4.75140	10.81956	8.62234	7.75505	38.27877	26.16272	14.58665
13720	3.76781	2.67067	2.16761	12.41133	9.62526	10.85546	35.36263	23.69933	13.66639	6.69976	5.41000	4.92905	13.69325	10.87180	9.61956	36.31926	26.24081	15.64854
13880	5.95043	4.82561	4.59939	9.98269	7.83161	6.43285	36.53957	25.49584	13.72175	3.54607	2.45341	2.75509	10.38135	9.91219	8.25585	35.04601	23.06862	14.44514
14040	5.04860	4.31698	3.86800	11.24170	8.42459	6.97820	34.55400	23.38135	13.15284	4.81276	3.44786	3.44886	12.69906	9.59980	8.04917	34.47656	22.76368	12.87888
14210	3.94127	3.18452	2.13833	13.73022	8.54013	6.97714	35.05580	23.07279	12.56796	4.18822	4.50068	3.67954	10.23077	8.87523	6.94675	36.24761	23.20348	13.22401
14370	3.88908	3.59344	3.53632	14.08049	9.26781	7.14608	36.64870	24.07148	13.64951	5.03931	4.97566	3.85723	10.94493	8.23781	6.90550	35.24917	24.68554	14.07290
14530	5.40321	4.02266	4.28701	13.34418	8.48753	7.43165	36.77177	23.67807	12.98306	4.32260	2.76445	1.95107	10.60871	8.63466	7.14057	47.35203	26.65375	15.55933
14700	3.93684	3.71276	3.23400	10.97971	11.84705	11.22577	35.17072	23.41447	14.03241	12.71339	16.00707	11.72664	10.16949	8.64124	7.36455	34.71775	23.94700	17.82712	31.25	6.1	0.00	7.63	0.01265	0.01288	0.01627	0.00780	0.00580	0.00637	0.00466	0.01262	0.01677	0.00677	0.00696	0.00878	0.01485	0.01091	0.01193	0.00218	0.00619	0.00867
14860	7.52803	5.70663	3.98222	14.55964	11.30379	11.18402	35.30821	23.84189	13.48412	5.93434	7.36529	5.22771	10.74962	9.21239	6.92829	36.46940	24.82265	14.19132
15020	3.08874	3.16783	2.72477	11.89473	8.32679	8.70966	35.40703	24.75401	14.30393	7.11850	7.36836	6.72171	10.99198	9.08030	6.90326	36.78925	25.27139	16.19071
15190	3.11758	2.91586	1.96361	21.16251	13.05358	9.90455	35.46998	24.78969	13.10653	4.38233	4.52359	7.36380	13.27454	11.68236	12.46139	40.82545	28.07024	23.50830
15350	7.02210	6.11091	4.41946	19.84252	19.31810	19.47995	36.41150	23.73268	13.79658	13.66044	14.14514	10.68343	12.90943	10.67402	12.17784	42.21621	31.41727	25.39475
15510	7.45610	4.83908	6.09276	13.58947	8.74153	7.68064	39.48554	27.14803	18.84515	11.10155	9.70965	10.30031	14.96166	11.75250	11.07260	40.55917	27.67837	15.40058
15680	7.48565	6.46543	5.43131	13.79754	11.74522	9.51281	39.32205	27.18190	16.41349	7.69515	6.23277	6.82268	14.18211	12.02771	14.04314	40.26628	27.09885	19.82038
15840	7.99633	7.50239	5.27917	12.89126	11.39335	9.02415	37.85366	25.16660	12.80215	7.35409	9.41234	3.96908	10.98431	8.92732	8.96704	40.37987	23.66980	13.72881
16000	5.72634	6.86253	6.03537	12.39749	10.69294	8.42135	36.83675	28.66214	16.65742	5.53585	5.73976	3.90029	13.69418	13.05372	9.85716	35.33699	24.00337	12.45247
16170	5.62340	5.08307	4.04609	13.94155	9.23450	7.77604	38.17324	25.03811	14.20730	4.64185	5.48893	6.23736	14.06276	12.89113	11.36935	35.95082	24.59591	16.40767
16330	6.89106	6.79765	4.81550	12.89929	14.10553	12.80956	35.52990	23.45217	12.62959	7.44702	6.90989	9.04057	10.46514	8.86495	8.02912	36.88043	23.43936	13.97829	31.19	6.1	0.00	7.68	0.01265	0.01288	0.01627	0.00780	0.00580	0.00637	0.00466	0.01263	0.01677	0.00677	0.00696	0.00879	0.01485	0.01091	0.01193	0.00218	0.00619	0.00867
16490	4.24183	3.27296	2.92766	10.44667	8.76357	6.89564	36.02351	25.05064	16.16424	5.65179	3.39888	2.21646	11.39041	10.12250	7.03423	34.58568	23.16862	12.92650
16660	5.70270	5.01671	3.22182	10.23540	9.04282	8.49777	36.11346	23.98780	14.87338	4.91653	4.87084	3.68974	11.16750	8.43924	8.80583	35.16389	23.76785	14.17058
16820	4.86599	5.85023	4.51922	11.33763	9.81356	9.16253	37.06699	26.09328	14.08682	4.14886	2.53574	2.11810	11.35075	9.17967	7.19129	34.13719	22.45924	12.66392
16980	5.10082	4.08138	3.14355	11.79476	10.31961	9.18259	37.62716	25.33059	14.52295	3.91850	5.39465	4.61593	11.62163	8.99799	7.67430	37.16320	26.75426	14.58649
17150	4.71348	5.13820	3.60440	11.05747	11.18327	9.24461	35.76254	23.92828	13.72454	5.07442	5.24512	3.57892	11.17447	9.25145	7.55317	37.80286	26.80778	13.73210
17310	4.62894	3.55385	3.17253	11.96792	10.89615	7.66563	36.42688	23.30805	13.24820	4.97436	5.60960	4.44401	10.41585	8.88421	6.65406	41.27014	30.19960	15.85754
17470	4.58439	3.24996	2.62049	10.47498	9.62278	11.10609	35.54761	25.59619	14.01655	3.91426	3.97768	2.87573	11.02690	8.97899	7.97487	35.30554	22.90591	13.18347
17640	4.11753	3.08242	2.41697	10.04472	9.31672	10.70768	35.32221	23.40409	12.82594	5.85612	2.53389	2.03692	13.18622	11.82102	9.70965	34.40596	23.67031	12.98949
17800	3.98695	3.37016	3.75017	10.81384	9.48258	9.14788	37.37066	24.87255	13.39693	3.50506	2.92299	3.21502	10.51319	8.12371	6.73388	36.02498	23.94070	13.90185
17960	3.33379	2.88013	2.15880	10.47323	9.29479	8.75734	35.58109	24.14600	13.81814	3.76126	3.09774	3.33072	10.98695	9.30599	8.37895	41.08010	22.61714	12.22588	31.25	6.1	0.00	7.57	0.01265	0.01287	0.01627	0.00780	0.00580	0.00637	0.00466	0.01262	0.01677	0.00678	0.00696	0.00879	0.01485	0.01091	0.01193	0.00218	0.00619	0.00867
18130	5.49379	4.31870	3.97352	10.32555	7.88891	6.39052	36.73551	24.12708	14.97042	7.81489	3.45062	2.63421	10.88946	8.95113	7.50657	34.52913	23.08067	13.09337
18290	3.70786	4.67248	2.99775	11.56158	8.96514	7.34700	35.15546	23.98368	13.34480	3.21442	2.43532	2.37025	10.88825	8.72111	7.77130	37.65783	26.99761	16.31225
18450	3.07491	2.77625	2.24921	12.82806	11.20730	8.95404	35.43268	23.90968	13.71710	5.28536	10.20488	7.33988	12.22524	8.71049	7.29946	36.74643	28.74063	16.25592
18620	3.18878	3.87689	3.66289	12.32503	10.60665	9.21789	35.27938	23.54174	13.44364	3.86903	6.05547	3.97937	12.53598	11.01834	9.21660	38.36055	26.96665	17.75511
18780	4.28079	4.19394	4.54774	10.81371	8.90143	8.32728	38.22966	27.49328	15.13462	7.72655	6.16248	4.27940	13.55480	9.24137	7.89866	36.76853	25.16217	15.30539
18940	6.06961	5.65002	4.65277	15.14154	8.93915	7.08563	35.07216	23.16967	12.54610	3.28917	2.75664	2.58664	9.74184	7.87269	6.69457	34.76410	23.10087	13.30308
19110	2.92808	2.36695	1.76689	11.50607	9.22878	6.96954	34.56376	22.78052	12.33942	3.44345	2.97772	4.62022	10.30092	9.79994	7.67391	33.99324	22.46430	12.70591
19270	3.38263	3.09616	2.46913	10.96229	9.55729	8.48764	36.80104	24.33285	14.06253	4.21571	3.81955	1.97764	10.24933	8.51495	6.92992	33.91422	22.31739	12.11588
19430	3.83800	2.97380	3.19333	9.83676	7.99928	6.39901	35.17019	23.28912	12.67794	2.88241	2.54518	1.82484	10.11753	8.49506	7.09812	34.49618	22.88751	13.48895
19600	3.73536	3.62919	2.84290	10.47205	8.46967	7.29847	36.66232	23.41967	13.01416	6.31504	5.85482	4.34856	10.90649	9.54894	8.48123	36.00914	24.46407	17.04850	31.25	6.1	0.00	7.61	0.01265	0.01288	0.01627	0.00780	0.00580	0.00637	0.00466	0.01262	0.01677	0.00678	0.00696	0.00879	0.01485	0.01091	0.01193	0.00218	0.00619	0.00867
19760	4.16921	4.16001	3.54271	17.55217	18.94055	15.01447	37.22744	27.72596	16.79583	8.26291	6.61557	2.36602	13.27549	10.50115	9.21995	37.67533	24.94856	18.85775
19920	6.62808	7.00845	4.76638	20.30830	19.46677	11.35551	34.79073	23.50019	13.34726	8.28817	7.49242	9.78743	13.52223	10.62560	9.17409	38.29127	29.35720	20.77623
20090	7.13943	6.20494	5.30530	13.79564	12.51842	11.62925	38.06295	26.95698	16.13375	9.81584	6.76074	5.77524	13.68968	10.02829	7.35450	48.51560	25.07348	15.79757
20250	7.87789	8.92963	6.91823	13.76273	13.30635	11.28219	40.21801	25.56984	14.86896	3.32751	2.89962	2.55037	14.20907	10.20692	7.98791	35.49634	23.57409	13.24410
20410	3.75940	3.18563	1.78779	11.16051	10.07165	8.34475	35.36886	25.06157	13.71016	3.67348	2.55399	2.38960	11.99901	10.63728	8.89241	36.27645	25.23578	13.53834
20580	3.64533	3.85273	2.43929	12.67167	10.19760	8.15342	36.63893	23.85668	12.60576	3.21081	3.48962	3.28135	10.39074	7.93124	6.55968	34.78963	23.76885	14.22121
20740	3.71675	2.62673	2.40820	11.77072	9.88064	6.94199	35.14348	23.33658	12.85892	5.14582	4.68466	3.43437	10.55412	8.91248	8.24720	35.48596	23.09273	13.60234
20900	3.49839	2.91212	6.30029	13.09853	10.43152	9.11738	36.09334	23.56084	13.35725	4.59783	4.00546	2.49734	11.67715	9.58350	8.05809	35.72352	23.43512	13.00385
21060	3.30306	2.47586	2.39576	10.61193	8.30460	6.63744	34.68817	22.77645	12.54154	3.31946	2.63427	1.98864	10.22448	8.13939	6.96443	34.25609	22.63024	12.57648
21230	3.76053	3.29664	2.59286	10.27322	8.26958	7.33489	35.61804	23.13260	12.69619	4.45624	2.56057	2.78267	10.04641	8.62149	7.21755	34.95157	23.35066	12.23609	31.25	6.2	0.00	7.55	0.01265	0.01288	0.01627	0.00780	0.00580	0.00637	0.00466	0.01262	0.01677	0.00678	0.00696	0.00879	0.01485	0.01091	0.01192	0.00218	0.00619	0.00867
21390	3.51208	2.76850	2.46092	9.74366	8.28798	7.88488	35.50188	22.99824	13.47759	3.96136	2.58490	1.94411	11.08344	9.36837	8.76770	35.21935	22.63499	12.35253
21550	4.38858	3.57673	3.23687	13.09852	9.59636	7.00017	37.30379	24.14721	13.40876	3.76028	3.20647	3.17313	12.09981	9.68161	7.56912	35.75743	25.38483	15.62436
21720	4.66709	4.05326	3.68331	11.23784	8.43881	9.57198	36.97598	25.72543	13.94219	4.64108	4.14452	4.56732	10.27806	8.33585	8.31658	35.25982	23.68106	13.70953
21880	3.89705	3.93218	3.39154	10.83178	8.22166	6.92404	37.94322	27.80984	16.14950	3.28395	2.82327	3.62495	11.14112	9.04888	7.23306	39.37741	23.03237	12.64999
22040	3.52212	2.93563	2.43288	11.85198	12.09800	10.41925	35.02502	23.43763	14.19696	5.11200	3.79693	3.12427	11.74647	12.61171	9.19765	38.08524	23.79660	14.17439
22200	6.90294	5.58659	3.73591	10.61579	8.60831	8.98424	36.14700	24.43986	13.29760	4.36595	4.26490	2.91419	10.30167	8.00170	6.55452	34.85617	23.62798	13.68371
22370	3.68074	3.14678	2.05613	10.14700	8.54496	7.04247	36.46863	23.90623	12.45537	5.51927	3.75828	2.86524	10.81451	9.97277	7.57257	34.36914	24.43555	13.03521
22530	3.67684	2.90873	1.85731	12.52007	10.31644	7.98480	34.70818	23.16950	15.93386	3.18348	3.37880	2.28025	12.02303	10.16904	8.13760	33.94465	22.64882	12.33738
22700	3.75366	3.07386	2.53337	9.66686	8.15558	7.49154	34.53195	22.76298	12.45753	3.34560	3.09147	7.05921	9.98469	8.14302	6.58589	37.01936	24.77687	14.64377
22860	4.07929	3.36598	2.68081	10.53248	8.62494	6.92960	35.14129	23.23582	12.51803	4.28804	3.34651	4.07720	10.97275	8.30377	6.88414	35.61626	25.47107	15.19467	31.19	6.3	0.00	7.69	0.01265	0.01288	0.01627	0.00780	0.00580	0.00637	0.00466	0.01262	0.01677	0.00677	0.00696	0.00878	0.01485	0.01091	0.01193	0.00218	0.00619	0.00867
23020	3.43011	2.97993	3.35341	10.05438	8.38339	7.30967	37.07760	23.63427	12.64887	4.04509	5.27887	4.17312	10.22660	8.85461	8.25879	36.55441	24.07269	12.48477
23190	5.09232	3.92995	2.58862	10.78401	8.64020	8.77678	36.76616	26.00165	16.84011	3.71575	4.59299	8.24278	15.14451	11.39506	9.84447	35.99220	24.85010	19.59523
23350	5.44231	6.49454	5.90567	15.34243	21.93954	11.25731	41.05371	24.14288	15.37692	15.56590	16.49546	15.75669	16.35355	12.58534	11.52596	36.62242	31.46320	20.81689
23510	4.45911	8.04071	6.67388	17.63994	16.89029	11.30429	39.70688	28.09337	17.77523	7.32314	6.63201	9.92152	18.29088	16.03354	10.07064	34.76225	23.62047	13.67318
23680	10.36915	6.73536	4.24235	12.96509	15.12176	9.00718	38.44556	27.75565	19.47974	8.43412	5.28370	6.91063	15.42655	13.85563	14.74720	38.68040	36.38487	19.72994
23840	7.83139	5.98068	4.46695	21.68806	23.33610	13.36131	36.58224	25.74021	13.42354	11.23083	5.12839	5.40540	10.53987	13.65061	9.35598	36.78638	23.73753	14.29334
24000	12.22955	10.34049	11.62293	13.94707	13.09451	9.89074	42.95941	34.14155	22.25150	7.69837	4.46426	7.79190	18.11867	16.71860	14.44755	40.62566	23.94003	16.72418
24170	9.18357	7.99000	6.86807	12.07477	10.06744	9.28312	36.70900	28.65162	16.31795	13.64835	5.33872	3.45024	14.66160	12.32570	9.37848	50.85662	29.95395	17.57086
24330	9.42412	7.22466	8.49236	13.47358	9.48187	12.83321	41.35436	28.49022	20.15274	11.59621	7.12228	4.64942	16.07077	14.54856	12.42542	46.59320	41.42752	15.87641
24490	9.84342	7.38087	7.62850	12.46610	18.34529	14.22953	37.54719	28.46335	15.70854	17.86920	14.19847	11.64939	12.08536	9.71696	10.99635	46.47139	30.71356	24.68738	31.19	6.3	0.00	7.59	0.01265	0.01288	0.01627	0.00780	0.00580	0.00637	0.00466	0.01263	0.01677	0.00676	0.00694	0.00877	0.01485	0.01091	0.01192	0.00218	0.00619	0.00867
24650	5.67196	5.31108	2.72097	14.19111	12.98955	9.13223	37.92599	25.91547	17.55254	11.24028	9.31788	6.82845	12.83989	12.04770	11.00929	39.99938	26.38072	15.92286
24820	5.36972	5.92097	6.07895	21.80668	20.81198	10.32426	37.16989	26.51599	18.99485	9.92515	9.40001	3.39402	15.99371	15.06809	13.43716	39.53409	24.34093	12.89232
24980	8.33796	8.69260	8.07174	12.20647	12.48955	18.15600	43.63513	31.37153	20.06113	13.90740	7.87926	6.15960	15.42158	13.30828	10.62449	40.39802	35.51623	21.41796
25140	9.74132	7.80319	8.84186	16.50566	13.04695	18.66525	41.02624	26.78285	17.56976	12.86944	11.73731	15.24116	13.66016	12.29912	14.91607	37.71152	24.87132	14.00587
25310	6.82066	4.80735	6.39832	17.57712	16.51436	13.21991	41.06670	27.17778	18.66765	10.71930	15.25217	13.34083	18.75220	14.50796	9.17434	42.31103	29.89167	16.69701
25470	7.74349	5.68147	5.02242	14.35760	12.03818	13.73510	44.90353	31.44695	19.34690	8.40389	8.97694	14.63259	17.04078	17.31232	15.94620	55.30728	52.15761	24.23334
25630	7.33544	7.35779	5.61882	17.60870	10.29488	13.08894	37.88929	31.84464	22.12305	17.30663	12.53018	12.34561	16.11288	13.15713	9.10691	37.86160	23.34731	14.38247
25800	5.45361	6.08448	4.95389	14.43882	20.13556	16.32047	37.86794	26.02122	15.86133	11.20872	13.49466	23.74830	16.66841	16.53976	10.54188	37.06118	30.17503	24.38196
25960	7.02044	7.67073	7.05363	34.57245	14.30911	12.90636	42.95557	29.66304	17.89125	17.21004	22.09040	14.46119	14.12263	13.26835	12.42730	62.77002	35.85744	27.16975
26130	4.95301	7.30920	7.14796	20.62750	15.34712	16.83931	39.19356	27.84342	21.19033	12.75832	10.67049	9.09553	14.06912	14.81027	10.54816	43.78396	33.90033	24.20813	31.25	6.3	0.00	7.55	0.01265	0.01287	0.01627	0.00779	0.00579	0.00637	0.00466	0.01263	0.01677	0.00676	0.00693	0.00876	0.01485	0.01091	0.01192	0.00218	0.00619	0.00867
26290	7.99920	8.29049	7.08245	15.09296	19.96251	14.16338	42.43593	28.46017	18.84175	17.06423	12.07996	17.83452	15.58047	15.47995	13.86570	55.62266	34.09190	19.30322
26450	6.64293	5.73695	8.22679	16.44613	24.67915	14.15231	41.09941	30.36339	18.83573	11.08849	6.34611	7.09673	13.66661	12.59085	10.28421	41.84503	35.70558	21.04318
26620	10.58990	10.21934	4.74934	15.91176	19.10606	16.13125	38.94852	26.86924	21.02304	12.84804	6.56302	27.78724	17.31246	18.35039	14.85750	39.26763	26.42885	15.50531
26780	12.28387	8.72839	8.64128	20.65633	25.85739	29.07533	43.07298	31.28955	20.20310	5.83438	3.68804	9.26415	14.07810	11.51813	10.32610	38.57165	30.87879	25.27960
26940	7.64877	6.50397	6.55199	25.77003	15.70766	15.64827	42.95072	29.55287	17.90550	13.55838	12.46449	7.49701	15.19511	10.23204	14.15405	36.34974	25.93746	16.71649
27110	6.81347	8.61727	8.53143	18.64320	19.75784	9.97125	40.77513	29.07696	17.97545	6.76205	7.86323	7.31819	15.59122	13.58583	9.04186	40.83091	28.00481	17.28156
27270	9.13957	7.43377	7.00288	15.79659	16.86453	15.19475	39.76480	28.48330	18.09118	7.79425	7.35374	9.05572	14.60011	15.86294	13.04762	43.53450	39.10146	26.06287
27430	7.01829	8.28197	5.11393	25.88039	36.06378	22.45870	39.75744	27.45635	19.65415	24.55507	24.96985	12.75192	16.65157	16.40865	14.23508	42.10794	29.42963	18.90891
27600	7.88710	6.75783	8.32532	20.13893	25.22941	26.29838	36.87786	26.93453	18.86074	11.99902	17.41242	16.69298	16.25798	14.15586	10.20037	39.96080	40.24695	31.75719
27760	7.73136	10.56856	8.96009	23.82659	18.28663	22.62956	40.20703	25.74935	17.41859	17.85596	8.75717	4.56445	16.42741	14.44680	12.76796	44.04342	29.58378	25.70933	31.30	6.0	0.00	7.53	0.01265	0.01287	0.01627	0.00779	0.00579	0.00636	0.00466	0.01263	0.01677	0.00676	0.00692	0.00876	0.01485	0.01090	0.01193	0.00218	0.00619	0.00867
27920	8.28973	7.40811	6.34745	22.39389	19.73990	21.77151	37.41619	32.22575	17.45559	12.67917	8.34969	9.36761	14.60045	14.84854	15.55059	55.53622	36.67669	18.56327
28090	9.25144	12.46624	9.05762	18.24029	24.77174	14.54121	39.04817	29.94175	18.02653	13.59151	15.79888	11.60549	19.95149	16.59528	15.55759	45.77375	24.65183	17.37137
28250	13.39442	10.83526	9.86680	14.43434	10.65160	16.48722	45.17562	33.10829	22.26083	9.28892	9.76755	6.69744	18.85587	12.81134	14.86840	44.66951	40.98265	34.17456
28410	10.01522	6.52440	6.26269	24.83301	21.45434	13.85937	42.01871	30.13190	22.00340	4.13587	8.70046	10.31959	17.15163	17.00219	17.93623	39.69526	40.58738	24.32527
28580	11.89812	13.42757	8.67398	35.52069	23.53324	23.16963	39.38975	32.30337	19.66459	9.22841	8.81916	7.35404	17.72513	12.50362	10.34150	42.11353	34.34597	17.79960
28740	8.03736	10.24629	11.71858	14.78541	22.14760	21.40476	39.10315	29.56867	17.48644	15.83989	17.40866	7.89551	12.93232	12.60774	13.92006	44.53086	31.35098	39.11884
28900	7.91749	5.76262	6.26120	31.44098	28.04807	24.41449	39.56862	28.99515	13.95963	43.94319	29.43680	35.99841	15.79183	12.24206	10.86863	53.92210	44.72710	46.82301
29070	10.97908	8.90943	8.74291	31.82326	37.84812	23.83340	45.90568	29.43316	17.85805	18.12812	15.06640	18.21411	15.22331	11.68532	8.33555	42.83818	37.36503	18.27878
29230	11.60721	8.07754	3.92117	20.30967	15.11514	17.85433	40.79198	28.45530	22.77432	10.96204	23.39623	20.31806	17.28290	16.36908	14.82355	55.80941	37.28335	34.13192
29390	8.84397	8.73779	6.69989	40.45196	43.33461	41.56380	39.60480	28.31909	19.54726	14.16634	19.53707	17.17771	15.32726	16.31673	13.51473	43.77420	34.35321	24.36768	31.25	6.0	0.00	7.58	0.01266	0.01287	0.01627	0.00779	0.00579	0.00636	0.00466	0.01263	0.01677	0.00675	0.00691	0.00875	0.01485	0.01090	0.01193	0.00218	0.00619	0.00866
29560	9.58417	9.97134	7.49242	19.15713	16.60631	25.65864	39.24195	28.65693	20.55439	17.67173	17.85463	11.95350	17.82877	14.75450	16.68563	55.65774	30.71406	26.48918
29720	10.42667	7.72718	5.04170	30.21123	35.90772	39.89906	39.89145	27.26602	19.73577	18.00595	21.46911	27.94505	18.82003	15.67862	13.31336	80.44850	57.00127	42.71808
29880	6.31084	6.42927	9.11777	37.37115	27.00342	18.61248	44.30798	30.54119	19.63950	8.49391	11.94983	11.74860	16.66971	17.41934	15.12220	49.44339	34.22026	27.86981
30040	9.11773	9.92099	9.11631	17.02586	19.80743	27.18244	38.40995	29.70081	21.22987	9.58667	20.53824	12.96583	15.48378	13.58456	11.11683	49.46960	42.03040	32.86435
30210	7.71357	4.77227	3.91255	14.17652	12.45573	12.70503	44.06549	27.33253	20.02314	9.78990	13.12143	12.33655	15.77999	17.20981	14.43066	43.49595	35.65539	20.92486
30370	9.28897	9.68378	6.68981	29.86612	31.77211	29.16673	38.42496	25.42694	16.14012	25.09334	26.77032	23.67934	18.16221	14.14378	11.04175	55.51260	46.68464	39.18304
30530	12.64468	10.29200	11.17841	22.34816	11.24847	11.42912	43.47935	32.59417	19.19435	17.08423	12.16515	10.41871	12.84618	11.62278	12.35278	57.34158	30.58171	22.20831
30700	7.36329	8.90266	8.36046	28.18747	24.49360	13.17462	42.95939	29.29620	18.61213	35.22689	18.57549	10.61582	15.22541	15.84313	17.20119	65.17783	35.66913	28.51392
30860	5.56720	7.04409	9.03819	29.59449	35.07598	23.65801	42.42663	29.62309	19.70380	21.61045	22.89953	30.61051	17.55270	18.82427	12.16295	44.38026	29.90839	19.90896
31030	8.85091	9.10958	12.10891	12.25994	9.19929	13.30707	40.77564	26.83585	16.15849	8.98598	13.07533	12.71536	17.95082	16.54701	11.67030	40.04181	32.61932	17.51371	31.25	6.0	0.00	7.60	0.01266	0.01287	0.01627	0.00779	0.00579	0.00636	0.00466	0.01263	0.01677	0.00675	0.00691	0.00874	0.01485	0.01091	0.01193	0.00218	0.00619	0.00866
31190	11.79001	12.37717	12.51786	21.80163	14.56934	26.23082	41.82397	28.52480	18.08806	19.16025	16.70058	15.73005	16.07183	15.47516	12.15078	64.73058	51.62753	33.98884
31350	8.90904	9.30944	9.10486	19.76496	12.51995	12.34655	42.46534	30.48437	23.05456	11.50829	16.35230	15.30171	19.47353	18.72572	15.28337	41.69025	38.71249	36.46893
31520	13.94706	13.14824	12.29382	14.99525	13.77030	25.60889	41.63133	27.09124	17.11000	22.76340	23.84019	15.67927	13.67350	10.97035	9.20485	43.03866	25.20938	16.94579
31680	6.81330	4.28034	7.79616	20.00922	16.48632	15.64529	42.94279	34.27349	20.25956	12.30003	17.37112	21.93854	15.22186	16.55945	14.46543	45.62264	37.58699	28.72725
31840	7.46373	7.58842	9.04182	21.79996	21.41309	27.41424	44.85068	30.01150	23.68279	14.49630	4.74354	11.48522	18.90417	19.63987	15.72929	50.04494	40.95994	29.38442
32010	8.14896	10.25859	8.79570	24.03786	23.36218	21.96838	40.87526	28.02466	16.53284	13.54895	18.65652	16.61347	15.67766	16.88112	14.88230	41.11612	42.74479	27.79839
32170	9.99820	9.85367	5.13304	29.40317	32.79407	20.13783	41.13223	32.20160	21.13449	14.38894	12.58128	18.33614	15.66000	19.09708	22.12071	56.82188	58.53416	29.75325
32330	11.25969	9.99226	8.67129	20.27953	31.46008	36.33616	39.87886	30.59951	18.14095	32.65820	24.19283	19.45099	16.24737	14.02236	15.48460	38.67331	27.25481	24.89713
32500	11.30506	10.20859	6.95985	21.07684	22.04587	14.65216	38.91854	26.21209	15.21155	9.52188	11.70069	16.73495	16.77273	11.81847	10.45382	38.88787	28.55499	26.73978
32660	9.67562	9.22669	10.77780	17.79270	30.39800	18.09597	40.72617	31.71202	21.17376	21.60907	36.13236	37.32458	18.39811	15.26660	11.68814	50.85420	42.26286	25.88959	31.25	6.1	0.00	7.88	0.01265	0.01287	0.01627	0.00779	0.00579	0.00636	0.00466	0.01263	0.01677	0.00675	0.00690	0.00874	0.01485	0.01091	0.01193	0.00218	0.00619	0.00866
32820	14.28061	13.71278	6.58159	15.18626	17.68221	19.50733	41.93682	32.75955	19.69423	12.23149	13.66702	24.77395	16.37605	15.13007	15.87644	51.61850	49.27621	38.57014
32980	7.78643	11.22002	10.85093	28.55925	65.91242	31.51857	44.19001	29.52285	18.87233	49.24612	30.90738	34.79095	19.97605	17.32739	16.04141	50.11053	37.86322	26.62650
33150	13.97986	8.80704	8.92096	40.31113	29.90943	29.18211	41.49973	27.48858	18.06732	23.31913	13.83458	21.35644	16.06724	15.00691	14.10920	42.32623	24.61037	13.94451
33310	11.89941	10.46547	8.27156	15.48342	16.91673	22.44653	45.61881	33.00751	20.61384	26.60156	27.38153	17.24996	17.81764	11.86977	10.76723	41.65277	37.38285	44.88934
33470	8.33902	9.69930	11.27404	21.65489	28.76363	31.18116	40.01070	32.56244	19.92251	8.09486	10.67455	9.17128	13.23902	10.65344	14.83354	39.49320	29.09066	19.67907
33640	10.06081	9.69600	10.88556	42.36526	47.76995	31.92016	39.73042	33.62775	22.02588	11.97574	19.59554	27.15576	21.97005	22.46175	17.32769	71.42201	52.42907	27.15458
33800	14.63950	11.16689	8.56711	35.24870	25.86713	19.02112	39.83491	30.03316	20.73342	9.42735	7.28130	11.98568	16.87429	15.53432	15.37029	63.87320	47.99623	43.54843
33960	12.73386	8.95834	9.67619	22.35979	26.61080	21.18470	45.87323	30.47892	20.72413	3.75284	11.47030	10.58522	20.22874	16.02216	13.68568	40.82741	29.05771	33.29650
34130	10.93257	8.31132	8.08057	40.97779	43.41901	49.57873	43.27954	32.79886	20.55580	25.89668	35.80064	31.62506	21.14919	17.61418	15.13702	68.08428	51.10479	42.73016
34290	10.84742	9.30849	11.63999	16.13089	23.31740	26.97255	44.18582	31.07443	24.25787	29.09989	31.24434	29.05138	12.78765	10.13606	10.54505	55.39982	39.38940	40.38512	31.19	6.1	0.00	7.62	0.01266	0.01287	0.01627	0.00779	0.00579	0.00636	0.00466	0.01262	0.01677	0.00675	0.00690	0.00873	0.01485	0.01091	0.01193	0.00218	0.00619	0.00866
34460	6.74857	9.33432	12.83781	39.65828	31.45194	33.75021	37.95424	28.69668	26.23953	23.96530	24.84269	20.21613	19.16320	17.77064	11.70225	60.47960	54.45881	41.81131
34620	13.08628	8.49744	7.34774	19.05039	27.95112	22.90705	39.27581	27.90760	17.88158	47.00219	37.69937	37.21242	23.51303	17.11278	19.52542	76.86246	42.08935	32.09383
34780	12.49398	8.51262	10.64764	17.09388	21.91015	19.93957	42.79410	30.31248	18.24224	20.16564	18.43733	37.31192	15.07413	16.78571	15.33560	71.41844	49.71050	29.96231
34950	9.65770	10.80164	10.69670	26.91711	25.90276	15.80979	40.95124	30.00736	20.68862	31.13514	28.98939	44.04424	15.76679	12.73186	10.64313	50.41976	44.82002	27.21601
35110	9.86042	8.46354	7.88088	17.73164	16.66132	20.33800	42.05765	32.09580	21.73562	24.40491	15.89974	9.67155	20.28851	14.55192	13.86602	44.91729	40.35129	39.09541
35270	10.20033	11.44621	14.80534	43.62564	56.99173	37.61474	44.44110	32.09716	22.05052	32.19660	28.14885	25.32504	16.52163	17.81917	16.90530	70.30370	57.96316	39.90582
35440	12.52309	12.13767	8.53307	34.48806	19.22567	35.82226	44.22217	32.10025	21.35529	33.28725	17.69538	26.61979	19.26351	13.60642	11.93638	50.15186	32.79610	40.52787
35600	13.17093	8.56949	8.94888	16.59769	16.26102	24.06869	46.53877	34.29150	23.95081	22.03837	13.62875	18.90938	15.98948	14.26761	11.76947	76.38618	33.14895	27.56367
35760	8.79063	7.13719	10.87321	33.86077	27.33431	21.66353	46.57750	36.92442	25.50293	14.17951	11.90232	16.84389	19.75187	16.77656	16.03776	39.61827	26.48871	25.24503
35930	13.05842	8.78406	6.84308	26.51026	27.44014	25.18445	43.14743	31.40963	20.00940	15.90526	11.40835	14.58665	22.81370	18.55785	18.21987	95.03383	58.97029	45.92767	31.25	6.1	0.00	7.59	0.01265	0.01287	0.01627	0.00779	0.00579	0.00636	0.00466	0.01262	0.01677	0.00675	0.00689	0.00873	0.01485	0.01091	0.01193	0.00218	0.00619	0.00866
36090	13.39456	12.11538	9.65243	42.00528	35.53630	35.28577	45.02552	32.04107	18.27625	21.68829	27.95842	26.39081	18.95175	11.39930	12.91808	55.88364	42.63106	46.81037
36250	12.64798	14.38528	15.10274	65.08104	33.34880	72.42889	42.32994	30.18427	20.17841	31.43404	49.29450	34.07889	19.17430	17.56295	11.22167	70.22652	60.54957	36.12403
36420	8.50869	6.69863	9.79003	17.31023	12.35217	10.82593	40.62797	32.89999	19.24791	24.16814	21.42544	25.15427	25.38426	20.98231	12.34909	55.56959	34.47170	23.00870
36580	12.80671	10.40563	11.66314	32.06306	30.19600	21.66620	44.31042	30.29439	22.01228	30.46723	34.11459	15.67806	20.01950	18.11949	17.08634	42.36040	34.69794	47.63968
36740	13.40385	13.77780	11.50063	32.75685	48.90362	53.33034	44.02834	31.96753	24.04496	34.55872	28.01913	27.77929	20.35555	14.20960	14.67123	57.37542	58.43806	41.73027
36910	14.54921	12.26577	8.44276	23.46141	40.22036	40.58950	42.06083	27.47163	19.99809	25.83085	16.41137	16.04045	18.69845	17.08569	16.31451	53.82721	44.84916	27.39485
37070	13.42848	12.11720	9.15526	16.42923	16.82097	21.18313	42.09021	33.20063	16.98054	26.96619	15.89374	45.01921	15.78645	13.34302	15.47929	63.65717	53.10972	32.24539
37230	13.86191	8.31731	5.11535	41.54349	44.07211	16.79054	41.95947	32.05935	16.34167	54.48109	35.27772	30.55621	21.50981	18.18882	17.05778	60.14480	50.03233	37.23314
37400	13.99957	10.28106	9.33240	41.13003	34.76861	36.12473	40.97502	33.03898	18.67293	34.84355	25.17697	11.24769	20.15804	15.36341	15.25981	58.04553	39.17882	23.00709
37560	8.89519	10.31555	11.31761	28.66852	16.15545	22.88763	42.69272	32.58247	19.11691	44.05183	29.78371	22.95937	18.59791	14.66995	13.09682	69.57715	32.12592	26.07854	31.25	6.1	0.00	7.59	0.01265	0.01287	0.01627	0.00779	0.00579	0.00636	0.00467	0.01263	0.01677	0.00675	0.00689	0.00873	0.01485	0.01091	0.01193	0.00218	0.00619	0.00866
37720	9.74447	10.55382	9.36919	27.58695	17.40827	12.36795	40.78960	30.41522	20.64600	25.50722	34.27662	18.57060	22.46023	16.23549	14.67088	65.40554	51.26027	46.14512
37890	8.82842	11.45457	9.35097	46.30380	59.03517	53.78414	42.62886	31.88614	21.64086	15.10255	20.10576	30.09185	19.56099	15.70141	15.95914	41.67874	56.57855	38.18465
38050	11.12095	14.99247	10.39505	37.94560	38.38828	32.89025	40.43209	29.26463	21.65025	43.04227	22.00284	16.40581	20.25848	14.71436	13.89443	58.77573	54.84229	41.89646
38220	10.16160	8.50557	7.04843	22.01201	28.97155	37.49000	40.41507	28.89831	15.72410	16.77301	17.92137	37.18628	17.04331	20.19696	15.67089	66.07334	40.34269	26.08049
38380	12.11711	15.56566	11.48644	33.53837	31.35996	33.83753	44.50117	34.83563	24.22641	24.36569	20.43816	13.67257	18.91366	20.93555	20.27515	46.78138	32.33364	25.49929
38540	8.92347	8.82812	8.22790	33.64944	60.47750	50.72345	38.75097	31.56736	20.53654	18.49912	21.66406	19.11972	18.35961	14.57118	14.53148	59.37948	42.12225	28.17205
38710	11.68332	8.67980	7.28185	33.58431	25.90330	19.42044	41.77059	32.38523	22.15926	34.76846	20.08743	11.87717	16.05972	15.27334	18.31111	49.98449	43.29811	28.91399
38870	6.62436	12.25100	8.93506	33.66557	22.76656	30.29107	39.33716	29.95369	14.89008	10.42056	9.04822	13.11697	13.10719	18.54784	17.35896	65.77400	39.29736	40.11464
39030	11.40283	13.72475	9.82389	39.32296	39.01309	32.11140	44.15107	34.05054	22.81071	30.52987	26.12827	25.96943	17.71528	12.40025	9.04614	60.61227	32.76661	27.96379
39200	9.63736	10.41844	11.17459	39.16159	31.16374	39.34133	45.36816	33.44911	19.41468	21.61725	13.36905	19.18637	19.92051	18.76523	14.65606	44.26566	44.64474	42.13288	31.25	6.1	0.00	7.76	0.01265	0.01287	0.01627	0.00779	0.00579	0.00636	0.00467	0.01263	0.01677	0.00674	0.00689	0.00873	0.01485	0.01091	0.01193	0.00218	0.00619	0.00866
39360	16.21459	16.77353	15.44586	49.67646	35.73873	31.55569	43.99241	31.78872	22.70696	26.61395	8.24403	10.02299	21.15922	19.63710	13.66027	47.67103	47.48413	33.78156
39530	10.14593	11.87714	5.70883	31.86786	27.22752	36.04041	40.95505	28.44272	18.14188	32.89033	33.28450	47.23437	15.16274	12.28368	10.23553	62.47129	41.11598	26.75075
39690	9.53037	9.57173	15.13996	30.66552	24.98815	13.27704	45.66448	32.36439	22.78896	26.75558	27.13869	18.16160	17.56383	16.31887	15.44593	43.20394	36.08710	35.86896
39850	12.10469	10.00567	6.85989	34.13943	17.77536	13.10344	40.81246	25.47897	14.89157	9.92254	13.49801	9.02648	19.14647	16.43178	16.64362	59.08732	29.42260	24.18618
40020	11.56456	12.05119	6.87403	46.32502	59.22985	21.81849	42.16452	27.93573	20.05321	21.82670	24.20440	34.56305	13.77190	19.01957	15.76517	79.66434	72.91630	43.18723
40180	8.12208	12.36146	12.65082	35.36586	34.45728	16.93426	50.91453	33.74110	22.35949	7.41144	6.78634	15.93348	18.74662	18.52123	15.57803	76.62751	46.27099	31.40156
40350	16.73090	15.49394	10.06743	45.50762	28.55246	16.86796	40.05002	30.52435	20.38985	31.26068	27.97919	19.66475	22.68779	17.81394	14.16524	63.33615	72.70933	35.13484
40510	8.96919	12.24101	9.98703	22.51622	19.96997	22.12144	43.99615	31.67268	20.68006	20.17288	28.37720	18.15977	15.51007	14.80568	10.89529	52.06016	51.82685	41.61291
40670	10.23208	9.53723	11.10706	31.74577	22.08194	27.56712	43.38803	28.56181	21.67810	46.54861	36.08968	20.76708	18.40291	18.58400	14.42212	68.18861	38.55377	18.91340
40840	11.25029	13.51159	10.13000	18.02241	28.45720	16.64657	37.89618	25.96334	17.30311	5.90539	4.69652	6.06255	22.35010	19.94255	14.52443	47.53839	40.65140	20.27658	31.25	6.1	0.00	7.57	0.01265	0.01287	0.01627	0.00779	0.00579	0.00636	0.00466	0.01263	0.01677	0.00674	0.00689	0.00873	0.01485	0.01091	0.01192	0.00218	0.00619	0.00866
41000	8.41785	7.47741	11.47510	15.93370	29.83283	19.56933	44.56257	35.38641	19.11758	15.85581	14.47069	26.72324	19.81213	13.25492	13.98629	51.45120	57.21709	55.31525
41160	11.18815	11.74335	6.53449	47.87537	47.14498	34.95453	38.75187	25.05090	19.65248	29.72238	28.95811	23.72912	17.41305	15.53785	16.71780	65.14906	40.57097	32.78110
41320	11.71347	14.00336	9.48642	21.98530	23.64211	25.32558	47.16958	32.49758	21.36152	19.32397	21.66467	34.55340	18.18857	13.73596	12.68922	55.29051	51.13562	33.98722
41490	11.28350	12.46379	10.91423	36.32666	22.92702	39.37909	40.49472	30.25043	21.18175	29.10038	22.45605	19.68679	17.83460	15.11738	13.64604	48.70811	34.60020	35.94932
41650	7.74278	8.77554	10.29402	15.24566	13.40801	31.04639	43.78504	32.01241	23.72847	9.09896	35.41062	30.37027	19.89133	17.39859	18.07737	87.61172	66.56162	44.77310
41820	9.04049	9.98099	9.40729	39.31611	30.74145	23.70927	44.41503	34.18120	19.88861	21.31842	28.25308	31.94238	15.56970	16.45192	12.67520	65.14906	48.33662	44.41804
41980	8.78536	9.45029	8.67988	16.27510	20.72068	21.45706	44.09980	28.75179	21.13147	17.58443	10.74740	10.07892	19.64627	17.09905	14.09398	54.31522	46.01961	25.56559
42140	11.09592	8.56759	7.30667	22.86081	15.09617	25.80237	38.18521	26.64556	15.21961	22.42728	62.17453	25.87534	13.05037	13.94651	16.43819	59.16817	55.31050	38.95747
42310	9.40438	9.33312	10.00495	53.61615	25.31872	24.84688	43.77771	29.10503	19.29773	55.45368	30.51071	43.46971	21.13695	19.04339	14.19417	60.61090	59.51003	108.31205
42470	10.08549	11.12498	8.68787	77.02484	44.74184	32.00187	41.62675	30.92008	20.88328	30.06411	62.98796	41.52588	18.69142	15.70507	14.85524	80.21669	81.49692	58.10920	31.25	6.1	0.00	7.70	0.01265	0.01288	0.01627	0.00779	0.00579	0.00636	0.00466	0.01263	0.01677	0.00674	0.00689	0.00873	0.01485	0.01091	0.01192	0.00218	0.00619	0.00866
42630	10.01129	8.94862	6.77498	24.86137	30.56663	31.47009	39.72404	32.74024	22.12158	33.94691	13.65048	7.00703	20.55668	20.17636	16.64141	62.43256	80.15601	55.78218
42800	16.22618	13.20599	13.02541	29.18247	25.68911	41.76802	44.50061	33.08744	23.75184	36.90568	18.70896	7.57389	16.75104	15.82597	14.10658	76.94985	89.22135	31.48681
42960	8.15990	7.87352	10.44275	47.76768	46.22173	64.23662	43.26429	32.12606	23.47385	35.12943	40.22920	25.66830	18.56207	17.46007	23.33662	44.33426	31.44814	51.64150
43120	15.58824	13.89432	11.95350	39.42565	27.35140	51.01857	43.79703	34.89271	22.31273	31.91365	17.63867	29.69790	22.04704	20.02844	19.60208	51.67946	36.98322	32.98120
43290	13.98063	13.94694	12.00347	36.36701	35.52089	39.83419	45.72509	30.69571	19.46756	27.22919	27.45161	41.64700	23.29085	18.68371	18.71214	71.42420	59.87968	39.89396
43450	15.57596	8.03628	10.73451	23.87100	35.16508	22.17284	43.70564	30.62108	19.46741	12.81590	24.01586	9.97030	17.32830	18.18387	14.30975	63.89758	41.94146	23.97888
43610	9.32846	9.85712	10.23240	37.73340	23.18880	21.04035	42.75684	31.37876	17.66623	15.70631	10.01674	9.51483	14.78107	13.73089	9.20949	45.60204	26.67261	20.71066
43780	5.95341	5.33659	5.58615	17.06958	14.29327	10.69091	40.24829	26.11010	17.63768	7.13875	5.74459	5.00611	13.14437	9.84588	7.52370	36.09009	31.21161	19.25638
43940	4.80209	3.75562	3.58848	19.01198	13.92840	15.69960	37.62743	24.51270	14.31966	8.45116	10.04538	8.67661	11.80768	9.84195	8.21569	36.99193	27.46288	18.88293
44110	4.14216	3.38192	4.53291	13.25356	14.36009	13.95660	36.15791	24.21569	13.23855	3.88545	3.56543	3.36723	12.12335	9.88246	8.53972	37.73534	26.24224	14.29164	31.25	6.3	0.00	7.51	0.01266	0.01288	0.01627	0.00779	0.00579	0.00636	0.00466	0.01263	0.01677	0.00675	0.00690	0.00874	0.01485	0.01091	0.01192	0.00218	0.00619	0.00866
44270	6.65510	4.87419	3.87285	12.08637	9.48152	8.30277	37.34537	24.72842	15.39445	5.95402	6.39894	5.45166	13.02516	9.64250	8.60904	36.17045	24.38666	16.33268
44430	6.40161	6.67805	7.64662	11.71688	12.85299	11.64557	36.34527	23.78342	13.57931	6.46050	5.80610	3.47153	11.10875	8.98890	7.65912	41.47770	26.00358	15.27171
44590	3.79302	3.45060	3.19221	13.32662	11.72371	9.80334	38.05996	26.30987	15.00530	7.83100	5.66094	4.92841	12.36362	9.09450	7.14994	36.77973	24.42323	14.30834
44760	6.90197	3.91635	4.05315	11.43539	9.96608	7.97557	37.51243	24.81200	17.30687	8.35233	7.15671	6.14049	13.07047	12.46332	11.54396	40.37327	29.08292	14.88225
44920	6.23615	4.14856	4.29183	15.45328	17.61958	12.34700	39.04072	27.33168	16.27164	8.90977	9.49674	8.72953	14.20206	15.25020	12.62568	38.10894	26.47467	14.57453
45080	11.98356	12.60726	9.69052	11.51154	10.38710	9.78985	39.18439	26.36799	15.13249	10.27790	6.42835	4.98168	16.87286	12.06843	8.71862	38.59027	32.17227	18.30147
45250	6.24243	7.31065	6.49058	12.98732	10.14431	10.32583	39.34309	27.68892	17.69490	5.84704	6.76817	5.70335	14.97357	11.48079	10.20544	36.92381	25.05759	18.54356
45410	6.85790	5.00644	3.63907	15.82696	9.90864	8.20802	36.50516	25.55143	15.92618	6.47694	5.35859	4.96123	12.86028	10.17866	10.98492	39.23071	25.53487	14.17165
45580	4.95855	4.39762	3.07632	10.98248	9.51066	10.87084	36.15278	25.43741	15.74650	6.66516	6.43400	5.03922	13.79459	12.14733	9.47309	39.47486	27.27095	16.15919
45740	5.45787	5.41930	6.63903	13.93242	11.23196	7.96663	38.25517	23.91311	14.22438	7.51519	7.98510	7.41936	11.60608	10.07899	9.73463	38.49652	30.36844	17.75996	31.30	6.0	0.00	7.63	0.01265	0.01288	0.01627	0.00779	0.00579	0.00636	0.00466	0.01263	0.01677	0.00675	0.00691	0.00875	0.01485	0.01091	0.01192	0.00218	0.00619	0.00866
45900	5.90551	5.35568	3.42114	13.15967	10.33626	10.57572	39.66567	24.58800	14.58000	6.70690	6.12811	6.33197	18.23173	14.96358	12.27523	37.89956	27.28613	16.47108
46070	8.53527	7.42004	5.65791	12.97971	11.59382	8.59760	38.76150	25.64866	14.97085	9.83770	6.39651	7.99905	10.78200	9.76922	7.91149	39.87549	29.13352	17.00685
46230	4.58200	5.31795	4.56726	17.90083	12.85176	11.95927	41.00237	27.49745	16.09715	9.44542	7.74480	5.16316	13.42040	12.40816	11.83813	43.29589	32.46476	21.04510
46390	6.82618	5.77657	9.18306	19.03452	10.94207	11.29522	38.85067	27.14046	15.51757	13.88273	6.04293	7.79733	12.70549	11.86330	13.05373	38.52636	24.97061	17.22357
46560	10.93400	8.82584	6.07968	13.00125	10.55287	10.06704	40.39106	29.05696	16.54405	5.73896	3.60168	3.99144	13.30168	14.16567	16.13633	38.41275	26.51049	14.90202
46720	9.82191	8.41894	9.79896	13.60256	10.77880	9.42074	41.34704	28.13208	17.05162	5.91355	5.09051	6.58067	15.86330	13.39939	13.50941	36.61825	28.36649	19.33744
46880	8.91097	7.73097	6.50151	15.12026	17.11221	12.30179	38.33780	27.26539	19.92585	7.38466	5.97157	6.44718	17.79559	15.43855	10.54000	40.22138	27.01228	17.64350
47040	8.34651	7.92608	4.97087	14.92839	10.82973	9.67836	38.21831	26.11259	14.23149	8.77721	6.01954	6.84653	12.28843	12.18187	12.99624	38.98495	27.41566	17.25560
47210	6.30681	6.82736	5.45346	14.44479	15.03950	12.56089	37.09036	26.83862	16.30649	10.59564	7.70676	11.66153	14.58727	15.34113	13.41739	43.59777	35.24354	24.30914
47370	8.61700	8.75640	8.18345	13.19051	12.79699	10.57395	36.98051	26.09999	15.47472	13.68158	9.18643	6.11331	12.59652	10.41658	9.49916	39.50955	27.28640	17.98116	31.25	6.2	0.00	7.52	0.01265	0.01288	0.01627	0.00779	0.00579	0.00636	0.00466	0.01263	0.01677	0.00675	0.00692	0.00875	0.01485	0.01091	0.01192	0.00218	0.00619	0.00866
47530	8.41126	6.64869	5.89480	14.64604	11.01352	12.22202	38.25471	27.52214	16.72395	6.42305	6.40073	10.30138	13.99873	9.93460	10.18801	35.62511	24.73269	16.86097
47700	5.56455	6.54595	5.26583	13.35240	12.52551	10.15643	38.05416	27.27492	16.41019	5.22958	4.02739	4.01059	17.48807	13.03589	10.60470	35.17122	24.58660	14.48676
47860	8.46831	7.66591	7.65872	14.02527	10.77414	8.98576	38.01185	26.14325	14.44186	13.27241	8.63262	3.65689	12.73693	11.64576	14.42273	37.71872	26.70083	15.09047
48020	9.13863	7.12225	7.86030	12.51969	9.69019	9.16995	39.36262	26.88926	17.54488	4.05560	3.90543	4.49876	16.11500	12.59833	12.06163	36.94203	25.78532	16.78454
48180	10.23139	8.05549	7.65620	16.14364	12.52092	11.16431	39.44785	28.75644	19.64887	5.32567	4.59344	5.06248	14.39050	15.65568	11.14242	38.12924	23.47342	15.39456
48350	10.15316	9.18226	9.34906	11.29700	9.80810	11.53910	42.30250	28.09304	18.89594	4.99768	5.65512	5.43166	16.71504	13.39360	12.22784	38.08709	26.13350	14.00270
48510	9.21824	10.04956	8.01489	14.66072	11.52328	9.15259	42.83518	28.28122	17.56739	4.51259	3.53078	2.57190	14.18225	13.69272	11.88641	39.27944	25.93111	14.81095
48670	9.02773	9.58478	7.50135	15.06267	13.60461	11.19764	39.63262	29.55472	19.34291	5.01330	5.26608	6.27916	19.40770	14.59545	12.72927	36.86728	23.37865	16.00465
48840	12.20056	10.30310	9.46607	11.47911	10.64954	8.81079	39.81593	30.24799	17.03292	5.46586	7.03921	7.12650	17.12529	16.12799	13.26461	38.80012	25.42627	15.99326
49000	8.12466	7.98066	9.38777	12.16131	9.32053	8.40220	39.83042	27.87080	14.79135	4.93768	4.76806	4.05090	11.37546	10.07835	9.24290	39.74408	25.23442	15.63925	31.30	6.1	0.00	7.74	0.01265	0.01287	0.01627	0.00779	0.00579	0.00636	0.00466	0.01263	0.01677	0.00676	0.00692	0.00876	0.01485	0.01091	0.01192	0.00218	0.00619	0.00866
49160	8.26935	7.86752	6.58184	12.56191	11.75917	14.47184	37.93170	26.07603	18.49395	6.69581	8.42948	6.67884	17.51906	11.92374	12.32047	39.60011	31.30744	20.26336
49320	10.65313	8.22008	9.65357	20.27945	11.87987	10.61136	39.83042	28.73106	20.86543	11.32856	8.61047	5.99965	18.69253	14.00740	13.41646	35.75587	26.58874	15.58254
49490	8.46656	7.35840	8.49179	13.58824	10.52167	10.05944	38.44872	29.08558	18.95693	6.76292	6.15969	4.87958	16.06173	14.83714	11.43174	38.07568	25.14597	16.21605
49650	6.26206	7.95024	8.07453	15.20139	13.30440	17.67565	41.60088	30.44645	17.31742	9.70576	8.92031	7.69442	20.21534	17.47173	16.58045	40.67615	29.45423	24.66645
49820	11.88405	9.72976	10.92060	17.41374	12.88078	9.05146	41.06946	27.91229	16.49522	5.50436	4.62989	3.20380	16.51732	16.10576	13.75962	36.68567	27.56549	16.50958
49980	9.15325	9.33421	11.93639	13.14914	9.46395	7.77078	43.93276	28.36645	19.31274	5.93006	7.00905	3.73817	19.45152	14.90919	13.68515	40.13295	25.71794	16.40171
50140	11.01751	11.59186	13.54733	11.10173	10.65281	13.16712	40.91814	29.59353	18.62600	5.78484	6.59585	5.36870	17.03094	15.08459	13.39315	38.80436	32.30333	18.21888
50310	12.66880	8.83699	6.60371	16.51101	18.10213	12.51429	40.87414	29.45164	16.68658	5.79082	5.62200	5.68287	16.80172	14.88473	14.00235	38.90066	24.69883	14.66433
50470	11.05635	10.99871	9.35587	13.47912	10.41867	9.66910	41.16785	32.51286	22.19073	5.39493	4.46377	4.18236	16.77599	16.43909	15.37676	37.73034	24.18464	14.69166
50630	8.99072	9.39953	9.98568	11.13572	10.37408	11.79543	43.70490	30.87237	16.88078	4.08552	4.52033	3.46963	16.47562	13.63428	12.73346	37.72007	24.86154	13.06448	31.25	6.0	0.00	7.54	0.01265	0.01287	0.01626	0.00779	0.00579	0.00636	0.00466	0.01263	0.01677	0.00676	0.00692	0.00876	0.01485	0.01091	0.01192	0.00218	0.00619	0.00866
50800	12.81704	11.69616	10.39531	11.25777	9.55314	8.98299	42.31781	31.73225	23.59215	6.27967	5.37980	7.96347	20.43777	15.51788	13.85216	37.66507	24.71172	15.50330
50960	9.96180	10.20313	8.19784	12.71804	12.63098	11.83071	43.19023	32.70178	22.45955	7.57378	7.25700	6.77160	16.47522	14.91331	15.40035	36.34893	25.95538	18.27728
51120	11.54798	12.28919	10.38584	13.70339	12.67955	11.10969	44.02879	32.89786	22.44225	4.97203	7.50701	5.10715	16.68652	17.27550	16.15429	35.18101	25.19719	14.78095
51290	10.72975	10.86501	10.16654	13.44284	11.73096	9.44300	41.42079	28.60841	23.04029	7.10614	7.51136	5.00520	15.38903	16.61217	13.04613	40.34436	25.70846	16.70481
51450	10.51357	10.71395	10.72445	12.22159	11.86431	17.90257	41.38462	31.68004	17.78516	6.90640	5.50493	6.00722	18.21509	16.01487	16.35485	44.64344	28.76576	16.36212
51610	9.55368	9.74449	8.96040	12.07852	11.42047	10.44461	41.47164	30.87306	19.63330	4.38570	4.61887	4.60217	19.05653	13.76649	11.99528	37.58154	25.12599	14.23105
51780	8.30874	8.05174	7.63899	13.14213	11.96235	8.47071	38.99189	30.00071	24.72244	7.60688	8.70554	5.63633	19.87020	14.72514	11.91606	35.77326	23.92484	14.55523
51940	13.70340	12.20589	8.50181	12.30423	12.60449	10.69134	39.54097	28.64473	15.96177	7.17811	7.01611	5.67981	19.80181	17.31782	13.68124	37.25885	27.89869	14.67722
52100	11.49339	12.18261	10.17945	14.07369	12.95900	16.55194	43.16260	32.58526	19.87236	7.15640	6.61011	6.31245	20.48665	16.87712	19.43872	39.70715	25.50094	18.97206
52270	14.89196	11.74175	9.83415	14.93521	14.17545	10.99905	43.08616	32.01094	20.35487	11.89884	7.13351	9.68458	18.47489	15.19359	15.78888	39.62184	28.13917	20.25699	31.25	6.0	0.00	7.53	0.01265	0.01287	0.01626	0.00779	0.00579	0.00636	0.00466	0.01263	0.01677	0.00676	0.00693	0.00876	0.01485	0.01091	0.01192	0.00218	0.00619	0.00866
52430	8.65939	7.17112	5.34689	15.08030	16.14227	10.80370	40.16110	29.80149	19.45459	7.72487	6.26372	9.87342	14.90155	13.70639	12.80323	43.56433	30.75698	13.69446
52590	8.41058	7.42959	6.57861	11.78097	11.40774	11.96933	43.80094	31.86243	16.42213	6.81867	6.75942	4.70696	14.27893	11.46270	12.44353	36.69854	26.15369	13.89210
52760	6.72892	7.35385	6.36239	17.39118	11.92651	8.62160	40.31690	27.36568	16.43587	5.78358	4.59132	6.16286	14.09861	14.74808	11.89248	36.39566	24.52897	14.84198
52920	9.89304	9.23338	9.58845	12.03978	9.53865	9.47983	40.97250	28.73085	17.63137	5.47674	5.14092	3.67025	18.51078	13.29379	9.38665	37.23392	27.19756	16.68259
53080	8.46302	7.69650	5.87738	11.64768	9.57768	10.28313	43.62417	30.57053	22.40973	4.53648	4.40542	5.20406	14.89164	11.82500	10.60645	42.08997	30.45818	17.50700
53250	7.12815	6.75714	6.23159	12.45915	15.91088	8.12932	40.56523	27.59598	18.36642	6.80098	4.40922	4.85931	16.82799	18.69555	13.34687	36.73080	25.49486	16.46676
53410	8.92300	8.63822	11.16255	12.68551	11.07315	9.76304	40.43964	29.75291	18.14457	6.83683	6.70715	4.33205	15.12154	11.72471	11.07156	40.12259	28.88385	17.66682
53570	9.91204	10.01365	6.74452	13.59046	10.71842	9.78219	39.23557	30.30212	18.16579	7.52454	6.79088	5.88754	15.55657	12.87185	11.83808	37.85534	24.93994	15.59947
53740	9.88746	8.62452	9.02732	11.02475	9.02808	9.84487	40.17645	31.50151	18.29867	4.87943	4.29192	4.38343	16.27083	14.50545	14.76081	36.94612	25.08909	14.34952
53900	8.26344	8.36472	8.23534	13.42181	10.95738	8.41409	40.30344	29.55843	18.16678	9.97919	6.10373	3.93228	17.01390	14.96477	16.20682	37.17276	30.76998	17.09650	31.25	6.1	0.00	7.69	0.01265	0.01287	0.01626	0.00779	0.00579	0.00636	0.00466	0.01263	0.01677	0.00676	0.00693	0.00876	0.01485	0.01091	0.01192	0.00218	0.00619	0.00866
54060	10.77752	8.73438	9.63288	13.67479	12.07418	10.12682	42.03094	33.47692	21.56253	7.78906	6.04137	3.32903	15.90502	13.64226	16.23114	37.26842	27.44040	14.38903
54230	10.60010	10.53630	7.25637	14.76245	12.76054	11.08413	39.96572	28.69289	17.98086	9.23971	7.21594	9.69395	15.65997	15.21359	16.40096	38.60861	27.01767	19.83818
54390	10.28253	8.58293	6.25335	18.32571	18.00655	14.39031	39.89455	31.54417	22.42633	13.35560	9.20922	7.00222	15.44821	11.76873	13.17425	39.48824	29.65252	18.59122
54550	10.73774	7.11604	6.21323	15.52873	13.46514	10.59206	38.15086	25.30396	14.78266	7.96290	10.48130	9.33878	13.19058	12.50242	10.93978	40.22515	28.21804	16.70279
54720	9.15452	9.75317	8.40739	17.37862	19.00574	14.28374	41.95726	29.15358	18.73223	11.17578	9.32015	6.56028	18.03093	13.25127	10.11963	41.19828	31.29338	15.34633
54880	5.28999	4.63853	5.71432	18.87080	15.47991	10.61374	42.53812	30.14130	19.09772	5.47463	5.77069	9.92972	13.03243	14.63546	15.77114	36.41447	25.82985	17.48497
55040	10.95030	7.06283	7.94639	13.96452	11.57410	10.28705	39.79304	28.22699	18.83086	6.62501	4.86570	4.23963	16.89536	16.40611	13.12243	37.23283	24.82531	16.14552
55210	11.99763	8.79601	6.74248	10.76688	8.56675	7.74063	38.79625	25.93890	15.21657	3.74821	3.36042	2.79648	13.53363	11.41398	8.88583	35.29390	26.46597	15.73068
55370	6.62001	7.28662	4.61314	15.24183	13.95781	10.68479	37.77245	25.76823	17.00327	12.63404	9.07859	9.26488	17.69924	14.38097	11.73259	39.36703	27.23390	17.12315
55530	6.58706	5.98307	5.82477	13.31169	9.86600	8.40476	37.74394	27.21913	14.50784	6.11663	3.91150	4.31424	12.61220	10.99318	9.20919	35.37129	24.14514	18.66907	31.25	6.3	0.00	7.53	0.01265	0.01287	0.01626	0.00779	0.00579	0.00636	0.00466	0.01263	0.01677	0.00676	0.00694	0.00876	0.01485	0.01091	0.01193	0.00218	0.00619	0.00866
55700	5.63597	5.23210	8.00469	13.32581	10.01705	7.20243	37.49144	25.76304	16.33028	6.19134	5.97666	4.89030	12.88761	11.26940	11.48658	37.26633	24.64148	14.49304
55860	8.72306	8.02700	8.36510	12.69458	10.01399	10.97099	39.46778	30.18414	18.80140	5.68635	5.83607	5.17328	14.15248	12.23644	11.22603	37.81596	25.53775	14.50648
56020	8.02512	5.83407	5.75769	13.28871	9.38878	8.40764	36.82116	25.67695	20.02529	8.27375	3.77948	3.45485	15.53924	15.20687	12.45215	36.82808	24.88492	15.41990
56190	7.18756	6.87647	5.75992	13.35674	10.04978	9.83152	42.56586	27.69738	20.20932	5.92115	5.49759	5.60662	17.54450	12.96065	12.59753	39.86242	27.30108	15.48473
56350	7.27662	7.10948	9.29178	12.27892	14.75822	14.92606	39.58161	28.19887	17.19029	10.44808	7.17384	7.24534	15.76382	12.76386	12.22334	39.18455	24.85455	14.92577
56510	7.56830	8.26623	5.51956	11.16707	8.80924	9.70342	39.02611	27.32973	15.68278	6.52464	4.48501	4.34808	12.96398	12.02852	9.32999	41.29466	28.30968	19.31868
56680	8.10066	5.83978	5.26286	13.49823	10.80307	8.13438	40.14809	28.95484	18.60925	3.81794	3.56501	3.80855	15.84265	13.65525	15.20904	35.78101	25.56409	14.53538
56840	7.13427	8.60650	9.66070	13.75928	11.00216	14.20599	40.69323	28.82750	18.97886	5.63072	4.64210	7.49010	15.38979	11.23642	11.06123	42.18926	29.45245	17.44439
57000	7.70180	5.76906	5.95263	15.09445	12.71506	9.63069	37.76000	26.66391	15.48335	7.81243	5.07541	5.42630	15.70911	11.25446	11.55242	39.62216	24.86934	13.76752
57170	5.02220	7.65865	8.05243	10.49449	8.53766	8.11315	39.65518	27.13810	16.61142	7.67636	8.55988	6.60057	15.74816	13.65905	13.08977	46.93722	33.73980	29.19879	31.30	6.3	0.00	7.52	0.01265	0.01287	0.01626	0.00779	0.00579	0.00636	0.00466	0.01263	0.01677	0.00677	0.00693	0.00876	0.01485	0.01091	0.01193	0.00218	0.00619	0.00866
57330	8.82410	7.00406	4.76744	17.44618	15.83798	16.42677	38.07315	26.12982	16.87132	10.60574	8.46365	6.84160	15.20919	14.35145	9.26453	39.98742	25.84101	17.01083
57490	5.38415	4.81034	5.09677	12.10160	11.92776	10.97105	37.63589	29.48246	17.13427	3.87311	5.19705	8.58580	13.54988	10.68213	11.96080	40.14739	23.52247	15.09311
57660	10.53553	7.05141	10.17685	18.03267	11.61547	10.05022	38.30287	28.26009	19.27341	4.26598	5.39583	4.94286	16.96609	14.46889	14.03929	37.69877	26.40524	15.88831
57820	8.77328	9.09011	7.71935	13.52466	11.53747	9.53381	38.89183	27.11364	14.88063	5.40749	5.83658	5.46190	16.02012	11.44079	8.38640	36.84310	24.80920	14.69084
57980	4.69187	5.91980	5.30515	12.15364	9.80299	8.55607	38.44501	25.25248	15.18704	4.32433	3.51208	4.74293	11.65105	10.44014	8.62621	35.48515	24.77243	18.28041
58150	7.11412	6.23053	7.22440	13.16535	12.43503	14.99062	41.65784	30.31089	15.99782	20.67794	9.91221	9.46876	15.04250	13.85332	11.56296	42.48169	25.40025	19.11992
58310	8.01157	7.13441	7.08994	13.13842	10.08680	11.77166	38.92452	27.12469	16.01381	6.22667	5.62798	3.32035	14.39285	9.70436	7.83452	36.60817	24.01822	14.43021
58470	6.97160	4.97798	7.18613	11.38820	16.66995	12.51089	40.07444	28.03806	18.01356	9.64322	8.99077	6.00907	12.23141	12.45246	10.34692	38.69518	27.30196	15.24681
58640	6.01097	8.76114	5.98604	13.44495	12.90979	11.71550	40.15329	29.26535	20.71372	6.32026	5.93682	6.97551	16.12890	10.35595	9.62977	43.13717	28.06987	16.42997
58800	8.23396	9.08154	9.84379	13.49436	10.76213	11.21547	41.07845	29.89079	18.82106	6.54746	6.34028	3.43000	18.34678	16.74246	14.25052	37.29026	24.63269	15.97655	31.30	6.0	0.00	7.54	0.01265	0.01287	0.01626	0.00779	0.00579	0.00636	0.00466	0.01263	0.01676	0.00676	0.00694	0.00877	0.01485	0.01091	0.01193	0.00218	0.00619	0.00866
58960	9.43398	8.32743	5.77342	12.67468	11.31045	13.78087	38.85963	27.23582	15.88391	9.11687	7.17941	7.85579	12.33134	13.70364	8.65891	39.23381	26.35722	14.54013
59130	6.82205	5.66294	5.67457	19.83159	14.09658	10.70293	37.39151	27.00565	16.53843	7.41466	12.93440	6.50730	13.33223	12.99816	9.26391	40.19144	25.36495	15.97313
59290	7.86589	8.08890	7.62672	15.01270	9.73531	11.59488	39.00775	26.18074	14.31166	5.93152	4.07098	4.09806	12.72472	13.03543	10.98892	36.04036	25.77648	14.87723
59450	10.06901	7.75554	4.85603	12.24995	9.53220	7.57512	38.75025	28.02443	16.57891	6.08991	7.50542	4.97995	15.92743	12.26464	11.59790	38.26015	25.89586	14.97828
59610	7.72559	10.78272	6.08063	15.18450	11.82614	10.76247	40.52518	30.60133	18.77885	6.35209	3.19419	2.36198	15.59627	13.79096	10.59481	36.56383	24.29610	14.62071
59780	6.52116	5.67272	8.60619	10.88203	9.71065	8.14868	38.44845	27.33988	15.71885	4.38779	3.68777	2.60965	14.47287	12.74767	12.28064	35.13774	28.24209	14.39188
59940	9.40194	7.79295	7.65403	11.54002	9.49684	11.32413	39.60624	27.30775	18.01391	9.64022	7.77663	7.75466	14.78596	13.06536	10.20564	37.63801	27.26787	18.53991
60100	7.56136	6.79500	8.13223	11.85817	10.43873	13.75699	38.65083	27.25069	16.81759	9.77984	8.20491	6.27544	15.67758	12.13745	12.50514	36.19928	23.91299	13.52920
60270	6.49263	5.93935	6.59023	10.63210	9.63324	8.58791	41.12339	29.25574	16.87179	5.69893	5.99366	4.72227	11.95078	13.25184	11.77898	37.39960	23.52440	13.40894
60430	8.69863	8.40801	6.55112	11.00299	9.34661	10.33773	38.25266	27.19967	15.04161	5.00247	4.22010	3.40971	17.27848	10.84928	8.96588	37.13237	25.36620	18.06990	31.25	6.0	0.00	7.57	0.01265	0.01287	0.01626	0.00779	0.00580	0.00636	0.00466	0.01263	0.01676	0.00676	0.00694	0.00877	0.01485	0.01091	0.01193	0.00218	0.00619	0.00866
60600	5.93145	7.01603	10.41539	12.38562	11.28132	9.58033	42.55254	29.93059	15.74574	6.03702	6.61014	6.60425	16.70776	15.10630	12.77760	38.90493	28.19200	16.32456
60760	8.03584	9.76296	8.56306	19.90972	18.30471	12.24950	40.33507	27.46793	17.06068	6.16770	4.50099	7.00412	13.59935	11.51538	10.22056	40.46715	23.80821	14.92848
60920	7.81680	6.83451	9.18433	14.21437	11.74427	10.89526	41.08105	29.41945	14.47011	6.80685	5.05554	4.26869	15.17879	13.26665	11.10246	39.82030	27.17248	16.02320
61090	5.27538	5.19311	3.63293	17.91750	16.29300	10.94879	40.43435	26.54677	19.68509	6.10912	6.83790	4.32845	16.00154	14.19656	11.48557	44.21176	34.94940	17.53579
61250	8.15001	5.46787	5.58995	14.89920	11.52438	11.14282	40.14706	29.79412	17.24232	6.74009	4.62828	6.42351	13.74094	13.68266	12.07787	38.54269	24.77612	12.92183
61410	8.67441	6.41240	5.53210	14.43756	11.05709	8.77111	38.27697	25.10539	14.90502	6.12585	5.37669	4.28761	14.41797	10.22534	9.72920	34.99004	23.99475	13.62620
61580	6.54566	5.57492	6.41883	11.31570	9.25439	7.35303	37.93376	31.10720	14.40228	3.86028	4.03798	3.17640	15.24258	14.64302	10.24204	35.88172	23.51135	13.35569
61740	6.02061	4.67638	5.75662	11.99676	9.52801	8.29226	39.81213	27.09318	14.90313	4.98341	6.07694	4.55031	15.66127	15.30839	12.30395	38.41668	27.89244	15.67600
61900	10.77650	12.08596	11.21910	12.70093	9.36998	9.19213	43.94108	30.73759	21.53752	10.95606	10.51738	5.28719	19.58195	15.33655	13.30562	37.97776	25.80691	14.87907
62070	11.10427	11.34955	9.08998	10.51281	8.80748	7.46340	43.83468	30.06216	20.30755	4.93918	4.22880	11.28791	20.86190	17.48428	11.08383	36.19704	38.23616	21.21085	31.30	6.2	0.00	7.53	0.01265	0.01287	0.01626	0.00779	0.00580	0.00636	0.00466	0.01263	0.01676	0.00677	0.00694	0.00877	0.01485	0.01091	0.01193	0.00218	0.00619	0.00866
62230	8.86256	8.41948	8.53843	20.81551	18.55231	12.49062	39.62756	29.90031	18.87760	12.79872	9.73790	6.74791	14.84789	13.99774	11.80326	39.71161	28.50961	16.64694
62390	12.28109	9.32018	9.90914	15.08932	13.87806	10.54569	43.19898	28.96958	14.69228	5.71015	6.60942	6.06220	16.26277	14.08833	11.85829	42.19962	30.52817	15.46662
62560	10.22256	9.51251	8.64815	12.59197	10.49542	9.03349	39.51801	26.91107	17.37719	5.77555	4.93065	3.55279	18.86218	15.59446	11.83332	36.01079	25.56830	15.30783
62720	11.00857	7.01096	8.11398	13.75700	8.71568	8.51447	42.09756	27.03785	18.45789	3.94324	4.59587	4.16200	16.05252	13.19449	11.38565	36.89782	24.49800	14.85896
62880	7.37521	6.46246	9.06168	11.88197	11.64299	7.86262	41.15052	27.09065	18.44974	6.74191	8.13695	8.60822	14.68478	13.71339	12.71707	36.84271	25.58735	15.49400
63050	5.56738	4.99533	3.41999	12.79314	9.86299	9.55295	36.92443	28.21821	16.64800	3.57443	3.11277	3.13952	12.28911	10.12244	8.31958	35.81185	23.93352	13.65787
63210	5.76703	6.41575	5.25236	11.18324	11.68085	8.01154	38.14624	27.46134	15.99033	3.97690	4.44353	3.43005	15.10641	11.35125	9.42456	36.85311	24.58085	14.47134
63370	6.68323	6.43968	7.67476	11.14888	9.15401	8.99580	37.78338	27.09979	15.83652	4.91395	3.85557	2.47766	14.01425	9.66793	11.17434	39.09570	25.35471	13.33898
63530	8.85320	8.70920	7.20433	12.16362	9.01030	9.99934	39.64695	28.66036	19.39133	7.15306	5.93771	6.83552	13.44923	12.00578	10.55163	35.75573	26.65958	14.55326
63700	7.74993	6.51698	6.01744	13.59625	13.20825	12.31363	37.91461	24.93356	17.98811	7.20084	6.77899	7.08390	14.02058	10.52507	10.29075	36.92718	30.39939	15.18642	31.30	6.2	0.00	7.56	0.01265	0.01287	0.01626	0.00779	0.00580	0.00636	0.00466	0.01263	0.01677	0.00677	0.00694	0.00878	0.01485	0.01091	0.01193	0.00218	0.00619	0.00866
63860	6.62913	8.44766	5.98214	14.68314	12.85362	12.44730	38.66950	25.55064	15.51965	5.21007	4.33973	3.74244	12.59684	10.04979	8.26907	39.39440	25.91664	15.29742
64020	6.56017	4.32577	3.35293	12.24001	8.98426	8.21461	37.32072	25.82257	18.79239	4.53355	6.91766	4.49170	14.51001	10.26758	9.21329	37.00390	25.11452	14.87499
64190	6.47790	6.90691	3.84683	14.22095	12.77629	10.06746	38.27383	27.99122	17.51245	4.78289	3.59255	2.97045	12.35534	9.85412	11.63903	35.50607	25.13272	14.13807
64350	7.64046	7.38961	6.64140	12.06660	10.26350	11.37481	36.70758	24.91168	15.32125	6.18328	4.90258	4.55650	12.11520	9.67479	9.32267	37.29191	27.28680	16.31694
64510	5.03507	4.94880	7.05400	10.26276	8.40432	7.10952	39.04830	28.97552	19.13350	4.00144	3.64600	2.84683	13.02174	12.32619	9.56369	35.49437	23.69891	13.87101
64670	8.57164	7.66081	7.69951	12.46984	10.15123	7.80485	41.32840	27.94379	16.44547	4.79158	3.37482	2.15195	15.46073	13.32285	13.64641	34.70324	22.95605	13.70031
64840	8.08126	7.67864	8.51948	10.92007	8.98301	7.05827	39.88038	28.87478	19.26817	4.15827	3.33598	2.60047	12.94510	11.58175	10.63339	35.33591	24.86052	14.61795
65000	9.36162	9.71893	6.51801	11.11285	8.90996	7.55573	40.24314	27.54143	16.63194	5.04134	3.97974	2.64720	14.90034	14.25358	12.67288	35.49567	23.90323	12.94262
65160	8.17703	6.90640	4.55483	12.19947	10.10866	7.41092	39.79755	28.00045	17.10390	4.25468	3.85058	2.98387	12.10989	10.25203	9.96851	36.08683	25.48930	13.65445
65330	8.27350	7.39560	5.12895	10.78959	9.76553	8.44203	38.52755	27.49259	18.12658	5.22035	5.00150	3.21228	12.82778	13.81096	13.62208	37.18340	27.35173	15.87753	31.30	6.1	0.00	7.62	0.01265	0.01287	0.01626	0.00779	0.00580	0.00637	0.00466	0.01263	0.01677	0.00677	0.00694	0.00878	0.01485	0.01091	0.01193	0.00218	0.00619	0.00866
65490	7.93844	8.36703	6.73121	11.38915	10.24468	9.45668	41.44384	28.99860	16.12860	8.33959	7.92066	5.37858	16.86840	11.94512	10.85488	37.39926	26.76796	18.25194
65660	8.58410	8.53307	6.35502	15.10672	16.50038	14.73207	40.10635	25.89999	14.52865	8.29639	3.73670	3.17147	12.64096	12.53089	13.03206	37.35384	23.18409	13.08248
65820	7.44412	7.53485	7.89878	11.53017	9.44271	8.42862	40.20331	28.46740	15.19913	3.90129	4.67668	4.32914	11.88777	10.66445	9.12072	38.33323	25.20415	17.10949
65980	8.15006	7.89692	8.85729	13.96301	9.53613	7.13618	40.08986	30.26032	19.74069	4.53661	3.66852	3.38821	15.38529	11.18382	10.21726	35.02257	24.32270	13.56736
66150	5.07699	6.06461	5.24041	10.57598	9.42102	7.27915	39.64484	30.17195	17.31613	3.51113	3.95624	8.60468	14.92387	12.95728	12.62633	35.16971	24.14183	14.63129
66310	5.35402	5.69797	5.83374	10.56393	13.92870	8.87043	37.78089	26.37655	17.28108	5.86421	6.22968	4.61411	16.94796	11.14383	12.79972	35.90857	24.09330	13.94960
66470	6.97415	7.15667	7.22330	14.28833	15.11594	10.99973	40.98154	29.79149	18.08401	8.91221	7.00172	7.14388	12.03153	10.55051	13.30672	41.01322	25.02717	15.08579
66640	7.93778	6.28700	6.39704	11.10498	8.93622	8.94261	36.52311	26.25343	14.80999	5.18075	3.89824	3.75544	13.45346	12.97578	10.27858	35.63509	30.51880	14.39138
66800	6.95171	6.81195	6.46872	12.49584	10.27428	9.04553	36.68501	24.52263	14.17976	4.51964	10.39994	5.11968	11.99825	10.14990	12.45702	37.83401	27.66000	18.88964
66960	6.87569	6.80432	5.83909	15.50969	11.02739	9.61023	37.08400	29.22845	16.36913	8.07040	7.22352	4.47591	12.69999	10.93355	8.82177	38.16956	25.32523	17.42058	31.30	6.1	0.00	7.58	0.01265	0.01287	0.01626	0.00779	0.00580	0.00637	0.00466	0.01263	0.01677	0.00677	0.00694	0.00877	0.01485	0.01091	0.01193	0.00218	0.00619	0.00866
67130	7.98827	7.35522	8.33456	11.14918	9.08665	7.42225	40.03650	28.56135	17.10572	6.05131	4.00090	7.85111	13.55088	13.26009	11.13416	43.36015	25.11605	18.74847
67290	4.69381	5.59805	4.60263	16.18318	13.56388	8.84109	37.65067	25.67426	15.68584	5.80861	7.67619	6.66016	12.55415	13.12370	13.17233	38.76182	27.51564	15.43281
67450	7.08697	5.98780	5.37530	13.54436	15.05210	13.69985	41.28519	30.24486	18.86583	6.23303	6.39941	5.60414	11.33636	11.93540	7.67438	39.08187	26.70799	18.46003
67620	5.35575	6.32246	6.03134	12.07842	10.28076	7.29717	39.75308	28.27353	15.83066	4.98783	4.40320	3.38889	14.35208	13.36739	13.12609	36.87909	25.87925	15.66501
67780	7.38863	4.47513	7.52472	12.08295	12.43955	10.78053	40.69981	29.68367	20.93227	9.05290	13.60076	7.18096	16.70270	14.83569	14.06810	37.81953	25.98872	16.06945
67940	9.03088	7.63944	7.38881	20.80604	15.15490	11.34455	38.34252	28.18924	16.28614	6.35820	14.90121	10.83624	18.01260	14.30744	14.34014	47.11019	27.73366	18.31848
68110	8.84745	7.44357	6.78069	16.64781	12.62175	11.25034	41.57360	29.63763	18.45838	9.20460	10.86559	7.48304	14.35803	11.97360	10.14445	42.10785	31.03303	25.33521
68270	5.79010	5.46269	4.67022	15.26314	15.23446	14.74209	40.68634	27.14271	16.99622	9.37057	14.96714	7.99233	12.94959	12.88647	14.87391	43.90795	26.66205	18.27950
68430	8.70612	12.51153	8.58491	25.08996	21.21476	12.99339	39.22086	27.65818	17.49836	13.19071	10.83023	8.69101	16.69487	13.93017	13.51938	42.57376	31.93074	22.82288
68600	6.06620	5.05929	5.50214	17.63957	14.74241	15.64295	40.66113	29.49093	15.04702	5.68317	10.34778	7.94418	15.70379	11.62007	9.79309	39.74381	26.80247	15.66907	31.30	6.2	0.00	7.57	0.01265	0.01287	0.01626	0.00779	0.00579	0.00636	0.00466	0.01263	0.01677	0.00676	0.00693	0.00877	0.01485	0.01091	0.01193	0.00218	0.00619	0.00866
68760	4.44600	5.47551	5.15179	13.56714	10.19048	9.57089	38.62383	26.01430	14.40095	7.78013	9.82948	5.96266	12.25097	10.06972	9.04542	38.98473	29.80935	18.05898
68920	4.61745	4.66197	4.65186	14.80773	16.58562	13.04935	40.02019	26.16201	16.86885	8.61807	6.01623	6.43605	14.48085	11.47779	11.25664	38.63197	25.64624	17.04878
69080	7.09213	6.75770	5.26547	14.83615	13.43339	11.78544	39.52037	27.77789	20.10012	12.21003	6.74247	9.40643	15.68584	14.79439	10.05635	43.49906	34.49032	19.56031
69250	10.61407	9.46261	8.06537	15.08157	12.61409	10.96801	41.83057	29.05646	16.03145	9.68471	13.52939	8.99857	13.62287	13.43410	10.62836	40.18445	29.46793	18.01620
69410	8.24961	8.73399	6.04458	15.32576	13.97128	12.64372	39.23111	28.07665	17.79100	6.13164	5.98009	6.27909	13.33363	13.65023	10.68770	44.43194	29.36220	19.14074
69570	8.75023	10.62042	9.33302	24.58568	16.27657	19.97967	39.36230	27.49560	18.92641	9.05135	6.73185	6.17764	18.30803	13.39170	17.03081	41.44383	27.42848	13.57849
69740	6.66406	6.74585	7.56032	14.11588	10.30765	8.93696	39.35641	26.83761	16.10654	7.42972	5.26952	4.51178	14.52344	10.69128	10.64545	37.02618	24.45787	15.43923
69900	7.05948	6.62101	7.70426	11.47203	9.96122	9.59684	42.10289	29.75911	17.20088	7.86892	7.04740	8.78545	18.03043	14.97535	14.99757	45.65272	27.64315	15.99568
70070	9.86894	7.33373	9.82267	16.12611	9.58620	10.11612	40.19550	26.90993	17.73840	5.47719	5.54650	4.04750	12.93228	13.91736	14.07876	35.40712	23.64001	14.09312
70230	9.76714	7.21811	6.38304	11.05400	9.72704	9.56474	41.21665	29.36421	18.53841	6.99584	5.77105	6.66907	17.46085	13.90997	11.70718	42.88362	30.30979	20.70501	31.30	6.1	0.00	7.53	0.01265	0.01287	0.01626	0.00779	0.00579	0.00636	0.00466	0.01263	0.01677	0.00676	0.00693	0.00876	0.01485	0.01091	0.01192	0.00218	0.00619	0.00866
70390	7.47605	6.67518	8.04748	18.22337	13.69418	11.75163	40.46878	29.86102	19.94284	10.93840	7.44288	7.49651	14.88166	12.34384	11.08897	39.66330	25.51745	14.83573
70560	6.91336	6.43179	8.30225	12.80525	13.23589	8.87302	42.05429	29.93968	18.89299	5.52638	6.66197	4.54983	17.56717	15.08016	13.71591	37.33536	24.64907	14.22194
70720	7.77646	7.32412	4.95221	13.38443	12.90072	10.16818	41.96975	28.27403	17.21407	5.71843	4.76218	6.19441	13.64945	12.23995	11.13408	40.04085	29.76164	18.29536
70880	8.74965	8.76772	6.13159	13.43629	11.31309	9.97541	44.71428	29.58034	16.99426	8.59834	5.85173	5.19377	16.63797	14.81553	14.63806	36.97347	25.75809	16.66137
71050	9.47559	6.00831	7.10738	13.35501	13.80112	8.24537	39.57947	31.20364	16.39954	7.16482	6.44599	7.43154	12.83285	12.45153	10.78146	47.22519	32.18380	20.70174
71210	11.34317	11.77083	9.79250	17.86044	13.93473	13.24048	44.42251	30.16095	17.60877	7.66791	6.75526	8.70577	16.94178	15.59643	15.48977	40.37803	24.63674	15.19738
71370	12.63651	10.31994	11.64778	14.25310	15.79636	13.08565	44.07456	30.48758	18.38107	6.46588	7.50231	6.00965	19.11807	14.84867	14.59056	40.92400	26.28955	16.64222
71540	12.17777	7.51579	8.92973	11.68742	13.32514	12.58641	39.74352	29.46782	20.08043	7.62317	5.09217	5.05152	14.60473	14.31846	11.61691	39.40840	29.17469	18.48865
71700	11.05828	11.64248	7.97860	16.87319	14.82755	10.95434	40.94773	30.37681	20.30825	7.70636	9.02635	6.22271	17.82761	16.00319	14.81656	39.53017	28.76775	18.82788
71860	10.59867	7.57672	9.92415	16.11578	13.58061	9.34177	42.75590	30.20526	21.42638	6.56786	9.14313	8.10415	16.62185	13.86028	15.42247	38.41781	27.05385	17.10576	31.30	6.2	0.00	7.63	0.01265	0.01287	0.01626	0.00779	0.00579	0.00636	0.00466	0.01263	0.01677	0.00677	0.00693	0.00876	0.01485	0.01091	0.01192	0.00218	0.00619	0.00866
72030	8.72243	6.71109	8.30849	12.41558	9.81238	8.79749	42.29160	30.01387	19.26511	5.53194	5.65938	5.46417	16.17446	16.14481	14.01086	37.70274	27.55079	17.78167
72190	11.87475	9.30989	10.13675	13.61193	12.21136	9.14978	43.15109	31.80216	18.96978	6.71563	6.20703	7.33524	18.00345	14.97584	15.32856	36.22089	27.26276	14.85463
72350	12.59223	11.01315	6.87622	11.57886	9.24101	8.72782	37.48308	28.57088	18.54137	5.62466	4.34648	4.03915	14.94140	12.26074	14.79124	34.97361	23.60726	14.24778
72520	8.05675	6.55424	6.75413	11.73810	11.53011	8.84165	39.08668	27.81088	18.15176	4.96174	4.34027	3.76541	18.78658	17.38285	14.71190	38.25900	24.60356	16.83366
72680	11.49956	10.39891	8.76479	11.47226	9.46461	9.41232	44.40479	29.15717	18.42990	6.15259	7.96288	6.98332	15.02046	12.03982	12.26814	37.11452	24.75083	16.56199
72850	10.52384	10.47698	8.91740	11.29673	10.72995	16.13822	39.28365	28.26482	19.48458	8.70430	8.30255	7.69717	16.61547	14.28375	13.64601	44.73352	27.35040	15.15372
73010	7.71913	7.65357	5.89152	14.98783	10.23600	9.08147	41.62066	28.40879	20.64539	6.45184	5.85641	3.61538	17.74067	13.63199	13.06275	40.73137	25.59032	17.55900
73170	9.10118	8.52004	8.39739	13.10507	11.92939	12.02532	40.35079	29.26594	20.48824	6.79586	8.13669	7.68258	16.30014	14.81658	13.21875	43.78518	29.85334	17.70859
73340	11.97572	7.55218	10.36620	13.42235	12.94083	10.24900	41.06996	28.01861	15.40563	7.11566	4.04646	3.38557	14.86313	11.64359	10.58666	36.31351	25.37997	14.11397
73500	8.44585	8.12527	8.48485	12.24972	11.76752	9.33472	38.69995	25.26509	14.64491	12.13896	5.12071	4.97619	14.58870	12.00933	11.89604	36.11385	23.97538	16.51477	31.25	6.3	0.00	7.71	0.01265	0.01287	0.01626	0.00779	0.00579	0.00636	0.00466	0.01263	0.01677	0.00676	0.00693	0.00876	0.01485	0.01091	0.01192	0.00218	0.00619	0.00866
73660	6.34258	5.48424	6.12967	15.72258	11.40899	9.10734	41.20159	27.66277	15.34900	4.91145	5.21983	6.34881	12.10271	11.10623	11.68181	37.84548	26.66442	14.91291
73830	5.71003	4.91994	6.09120	11.20714	10.18003	15.49965	39.11005	28.84804	16.41915	7.11839	9.30381	12.56555	13.62707	11.57665	9.67900	37.95282	24.66605	18.09941
73990	7.96680	6.84449	5.77473	15.75891	13.55864	13.33821	39.57619	26.91345	15.29209	7.13512	7.87507	6.21243	14.18221	12.37403	9.78977	35.82788	28.02284	13.88507
74150	7.59879	8.33674	8.61468	11.39964	11.96976	9.49033	38.08351	25.69769	18.30645	8.06067	8.57705	9.22171	13.80095	12.40015	11.59829	36.41393	24.91324	14.31228
74320	9.67697	5.08521	7.82784	11.39939	9.13607	7.98021	40.35785	29.64343	19.83600	6.65248	4.31391	5.15495	16.19831	14.54354	14.45057	36.14290	23.45590	13.06424
74480	12.71927	10.44161	9.41574	10.55535	9.16541	9.73862	42.59907	30.47155	18.76498	5.72160	7.24744	6.08957	20.45573	13.66051	11.49838	36.89806	26.01735	16.49726
74640	7.25184	6.26638	8.82049	11.81758	13.47162	10.73719	42.33998	31.00858	19.86385	7.43515	6.93458	5.37216	16.98223	11.91763	11.47742	35.78501	24.24969	14.91938
74810	10.22414	8.41626	6.71934	11.79659	11.64302	10.97747	39.27121	28.00765	16.55238	6.66450	7.35644	4.18133	14.76141	13.56747	11.26368	35.17067	24.24852	13.42841
74970	7.77178	7.03534	9.71494	10.95778	8.45253	6.87210	41.48192	31.84927	18.47599	5.30319	4.86148	5.02295	14.46663	11.63880	11.29258	35.75698	24.01047	14.84848
75130	6.51241	6.00158	4.80874	11.54009	10.08371	8.90144	41.93883	30.07770	19.75041	7.63287	8.40675	5.20713	15.75309	12.73229	13.36716	38.14653	28.93522	15.60510	31.25	6.0	0.00	7.53	0.01265	0.01287	0.01626	0.00779	0.00579	0.00636	0.00466	0.01263	0.01676	0.00676	0.00693	0.00876	0.01485	0.01091	0.01192	0.00218	0.00619	0.00866
75300	12.75962	8.00477	8.45457	18.43923	12.47432	13.25645	41.15414	29.05718	20.14840	8.26567	7.66476	10.49212	19.62300	17.22869	14.62321	46.66760	33.27238	19.39501
75460	8.80812	6.33929	6.52423	12.39475	14.33694	9.57936	38.74292	27.51321	17.41786	6.15269	4.52524	4.65035	15.42451	11.82190	10.54079	38.71612	28.36608	22.04474
75620	8.72904	7.39878	6.46807	12.32238	12.86141	13.81078	38.43729	26.81585	17.93167	10.80108	8.50025	4.82132	13.73891	12.83086	10.31354	37.68818	25.76933	14.55228
75790	5.89112	4.93223	4.08131	15.59397	11.20721	8.48437	41.65157	26.62920	15.53264	5.60603	5.45878	6.86134	14.39323	12.48205	10.51834	40.82552	29.56409	15.24684
75950	8.40823	7.43172	8.41681	13.28161	12.73177	10.87543	45.04926	31.02400	20.87893	5.48283	4.73294	5.22821	17.69030	15.36431	13.65938	37.57720	27.92014	13.56882
76110	5.02343	6.11016	3.75000	11.22905	10.37092	8.50825	38.82752	25.50540	15.06583	4.27863	3.29075	2.95442	11.46438	12.28577	11.60314	35.30873	24.76878	13.98891
76280	9.84451	8.30414	8.63298	10.76150	9.92559	9.95061	41.37233	25.71156	17.05439	4.55950	6.38700	5.62267	12.57788	11.70603	12.23454	37.05827	26.24716	15.61122
76440	8.52649	5.33171	9.72005	14.40583	12.16820	10.54677	38.63160	28.04837	17.55620	10.00450	12.68975	8.51789	16.40209	13.54358	10.19506	42.98089	30.98208	23.51820
76600	7.09034	7.68450	6.55442	13.72340	13.15349	13.25999	38.57803	26.57276	14.76364	7.04485	8.10397	4.99838	13.26580	12.23247	12.08359	37.73357	25.51459	16.18633
76770	8.40791	5.27640	4.87950	12.55301	10.39378	7.89007	38.77235	25.66606	14.82442	4.98182	4.58133	4.74148	16.83641	15.63809	11.48709	35.26920	24.16222	15.58353	31.30	6.0	0.00	7.55	0.01265	0.01287	0.01626	0.00779	0.00579	0.00636	0.00466	0.01262	0.01676	0.00676	0.00694	0.00877	0.01485	0.01091	0.01192	0.00218	0.00619	0.00866
76930	7.76905	6.80308	5.72383	11.50318	9.83231	7.67183	37.67959	25.21122	15.66298	4.44817	3.25709	2.75969	12.62317	10.81680	9.70137	36.70334	25.25437	14.70243
77090	7.07633	4.80597	4.67523	11.20717	8.85173	9.01976	39.23290	25.86266	17.14102	4.80702	4.07642	5.64602	12.78778	11.03003	9.05527	35.85499	24.27385	13.88313
77260	4.84600	5.25197	4.53571	11.36723	14.05945	11.70209	38.39717	24.53164	16.18821	7.82560	5.69623	6.59335	11.60390	10.72276	10.55906	36.94667	24.29794	15.21857
77420	7.90718	5.46457	5.03922	14.83480	9.35975	11.21020	41.11190	27.36646	19.26024	5.56189	5.82776	6.76212	15.18034	11.21189	12.14055	38.55474	28.82871	24.90060
77580	8.36662	10.11149	8.11581	13.71794	11.12848	10.37550	38.72800	26.60271	14.52793	6.19070	5.97182	10.38750	13.65829	13.02413	11.15926	42.65802	26.69811	16.61470
77750	8.19125	7.84781	5.02656	13.14877	11.50119	8.46856	39.21081	29.05524	16.01532	8.05144	7.12767	6.80729	13.28476	11.42068	8.96443	36.15989	24.71837	14.03402
77910	4.55428	5.19158	4.20755	11.37343	10.57623	8.24473	36.90073	25.45116	16.02642	4.14730	3.12430	3.57754	13.13509	11.70722	9.03243	36.74300	25.12316	14.65513
78070	6.62627	6.60503	5.67879	12.12275	11.50377	12.22548	38.45730	26.32736	15.66236	4.54336	4.13727	5.80475	14.03573	14.33364	12.35688	38.15365	26.10549	16.91988
78240	9.04256	8.99737	10.97254	15.32060	13.07252	15.37863	41.99517	30.95728	18.40045	11.41267	8.46469	6.30874	14.74295	12.39547	11.41692	38.08609	24.89012	18.04360
78400	7.30979	7.43351	5.84355	13.63782	11.25795	12.78094	36.97323	26.58398	16.25912	12.99540	10.84943	7.00140	17.25320	11.51560	11.39380	37.99006	28.53316	15.36809	31.30	6.0	0.00	7.57	0.01265	0.01287	0.01626	0.00779	0.00579	0.00636	0.00466	0.01263	0.01677	0.00676	0.00694	0.00877	0.01485	0.01090	0.01192	0.00218	0.00619	0.00866
78560	11.06287	7.63619	5.90517	13.27473	10.24009	7.84954	41.46038	29.83783	16.79925	4.86569	5.50786	4.29330	13.78063	10.64796	10.27589	40.67860	27.44511	16.55549
78730	5.55549	5.33758	4.32876	13.40107	11.36721	9.68685	37.50802	25.39685	15.88045	9.57269	5.99689	4.75043	12.03601	11.15035	7.99516	37.74468	29.00164	16.79650
78890	7.88219	5.25708	6.24710	15.73267	13.37628	13.45486	41.57149	28.24737	16.79674	10.61076	6.25516	5.27472	14.20907	10.60647	9.57552	37.43711	24.34593	13.25162
79050	7.11906	5.07420	3.83239	11.76400	10.13421	8.41000	38.45965	25.80541	14.54754	4.68992	4.19187	3.73360	12.79258	10.67069	8.94311	35.87871	23.66061	14.99809
79220	6.85001	6.46483	5.77029	11.17224	8.70576	7.24351	37.22705	24.70570	14.60004	4.67632	6.12925	8.61854	14.24987	10.68411	8.50595	36.24579	24.59861	15.55881
79380	7.31381	5.10428	5.91013	11.72761	9.75038	9.08239	39.45896	28.19425	16.44769	6.06038	4.48555	3.32699	14.96368	14.27735	12.25232	35.42094	23.31790	13.13433
79540	5.47876	8.79206	7.98359	12.95882	10.38151	11.76565	37.67390	27.14450	17.05528	6.94553	4.73426	3.25156	16.94133	16.11334	14.20026	36.40530	25.07709	17.00028
79700	10.30670	8.66177	6.32816	14.05916	10.15636	8.22867	40.18193	31.11564	20.79738	5.64053	5.22583	3.27614	18.44445	14.20315	13.13516	38.46114	25.75218	15.94248
79870	7.25147	6.23539	6.11318	11.48953	9.25051	10.89338	37.93617	25.81860	16.11408	6.16700	5.45991	5.02410	14.01847	11.24827	9.62989	36.00505	25.13067	14.61870
80030	5.34673	3.95707	4.53128	13.43082	11.02874	8.83670	36.96958	27.18940	14.62828	7.27579	6.09639	5.50295	12.74543	12.39428	10.39147	38.98664	25.99142	14.42333	31.30	6.3	0.00	7.59	0.01265	0.01287	0.01626	0.00780	0.00579	0.00636	0.00466	0.01263	0.01677	0.00676	0.00694	0.00877	0.01485	0.01091	0.01192	0.00218	0.00619	0.00866
80190	5.43176	4.10737	4.12642	14.12619	10.24807	9.26301	39.81089	27.21154	15.60980	10.24691	12.26619	7.56182	12.66255	10.78897	8.53649	38.18381	29.88669	17.38082
80360	6.97683	7.72355	7.31943	12.32012	18.39822	9.45563	38.72970	27.18952	17.38396	11.02654	6.70222	8.56010	16.74474	11.71770	9.89935	46.45715	27.05861	18.49026
80520	6.37533	6.18595	6.33166	12.13973	11.85419	15.07312	40.24560	27.36238	16.88074	10.05899	7.58838	3.92370	12.94840	13.86127	10.96011	36.91520	25.17595	20.67036
80680	7.06779	8.10585	6.76968	12.83345	10.33243	8.29356	41.83034	30.04114	17.17506	9.14674	6.98444	9.54389	14.76984	12.33383	11.30453	41.16711	25.99107	15.65577
80850	7.48330	6.42603	7.38476	11.37755	9.66054	12.90617	39.33297	27.65842	18.20591	8.25642	7.91949	5.15199	14.90413	14.00100	13.08278	39.02723	24.19799	15.56577
81010	10.14982	8.62940	11.35506	13.31736	9.92500	9.76781	42.33478	27.10636	16.74506	5.68739	4.92952	6.73959	18.57200	14.59131	10.40212	39.55682	26.26146	14.43592
81170	7.03234	5.65448	6.18692	12.89900	12.83488	10.06852	39.80349	30.08955	16.94749	8.68882	5.63140	5.32902	14.10907	15.74193	14.74560	39.78952	26.28243	17.02198
81330	8.24796	8.37539	8.39731	16.63694	13.78410	12.59715	39.96497	29.07262	18.27517	8.90425	7.99179	6.82923	15.23978	12.37731	11.25472	38.54365	28.02834	16.36332
81500	6.95740	5.26671	5.63113	12.67097	11.57974	11.65881	38.21212	28.75184	19.63505	5.36090	3.29244	3.26254	11.88490	9.47030	8.55853	35.50607	24.22103	14.24449
81660	7.31885	6.89462	6.20276	13.09795	10.67656	8.78528	39.52241	25.92163	15.46366	4.79640	4.42377	3.32450	15.91660	12.60071	10.05472	38.43181	28.32330	13.30903	31.30	5.9	0.00	7.63	0.01265	0.01287	0.01626	0.00779	0.00579	0.00636	0.00466	0.01263	0.01677	0.00676	0.00694	0.00877	0.01485	0.01091	0.01192	0.00218	0.00619	0.00866
81820	5.88064	4.05613	6.15737	16.87686	11.66138	11.05576	37.03833	26.82232	15.63921	5.60219	3.73044	2.66003	13.24404	11.74614	11.11069	35.31959	24.21081	13.85770
81990	4.90831	5.59979	3.69751	11.83242	10.60916	8.21827	37.87300	26.06899	16.23839	5.29651	4.58895	3.23081	12.15801	11.65817	8.66199	36.01982	24.22321	13.67746
82150	6.94374	4.71812	6.69873	10.58283	8.42152	7.73482	41.00599	26.69454	15.86070	5.56200	5.80481	3.55495	14.48608	13.41600	12.06862	35.53237	25.16658	14.66455
82310	8.00628	9.42848	9.27654	12.44804	10.72998	9.81107	38.53431	30.32540	19.48720	5.30777	5.69841	4.52132	17.99730	15.27760	13.46321	37.95728	27.88365	19.97362
82470	11.44428	10.08587	6.97668	12.48069	13.59966	10.25700	40.74406	27.24640	17.84912	5.07584	5.13404	5.56898	18.73308	12.78861	10.69499	37.17936	25.08922	15.32811
82640	6.13742	6.11263	7.68323	13.74959	12.23013	10.16328	40.67258	27.30497	17.98669	5.77610	6.44509	4.29783	12.08993	10.95438	11.49154	38.25913	26.61403	16.68027
82800	9.50669	11.51873	7.11819	13.90677	13.34412	10.27129	38.17722	26.60568	18.02247	5.60586	4.57437	4.71110	13.13402	10.59440	12.93312	40.15968	26.19709	14.69094
82960	8.30272	9.05134	9.29347	19.12728	11.69607	10.80519	43.35905	30.43753	19.44756	6.61396	7.62963	7.05609	18.01167	14.51629	14.29446	35.61483	24.87532	20.32730
83130	5.65280	5.54215	3.53517	17.68006	16.07176	9.99472	38.57236	27.57024	16.54150	9.35208	8.40010	8.54537	12.93664	11.29533	8.86333	40.21782	29.43341	15.60076
83290	8.46144	8.14361	5.20921	14.37528	14.37464	18.45825	39.61420	28.97029	15.08372	6.40230	4.14684	5.25089	14.12828	12.25968	11.13828	38.60847	26.39140	14.57614	31.25	6.2	0.00	7.71	0.01265	0.01287	0.01626	0.00779	0.00579	0.00636	0.00466	0.01263	0.01677	0.00676	0.00694	0.00877	0.01485	0.01091	0.01192	0.00218	0.00619	0.00866
83450	6.02291	5.21112	5.72870	11.22031	9.21667	7.67396	37.56012	25.81854	13.73444	3.90832	2.93829	2.79164	12.90150	10.44617	8.67912	35.59692	23.66590	13.20686
83610	5.28151	4.90299	5.05615	10.43010	9.57085	8.96525	41.11268	27.18894	15.65226	3.54915	4.16695	3.13038	13.39942	12.80307	10.65137	37.79333	26.57093	17.14026
83780	8.25844	8.48352	8.83267	17.38030	10.28797	10.02102	40.61141	28.64920	22.19563	7.18812	8.90274	5.46636	18.56365	16.12977	12.29328	39.69167	25.09605	16.29500
83940	11.79849	10.76018	8.23659	16.05589	11.62485	14.12515	40.37903	27.47893	16.84357	6.09272	6.92819	6.50942	14.51374	11.40448	10.78297	43.02877	29.92499	20.81661
84100	9.31998	6.99751	5.95315	16.19827	15.88119	12.79860	40.35035	26.49517	15.97764	5.91040	4.72102	4.48322	13.58694	11.19057	7.62598	36.57472	33.95513	19.48838
84270	11.86341	9.17085	4.23330	13.54120	11.58895	14.41062	39.31994	28.25896	16.52929	9.94922	7.55627	11.74851	15.20450	10.79313	9.83563	38.73336	26.08948	23.81124
84430	6.17872	4.83388	7.22823	15.86816	15.69844	10.51490	37.92406	26.86456	17.06944	11.93101	7.08526	3.12587	13.85628	11.43313	12.18672	38.23264	27.47480	14.10422
84590	9.77254	7.24858	5.74494	12.94654	12.15034	11.71777	39.78369	25.64213	16.52296	6.26233	4.54777	6.90243	14.96814	13.56965	12.39989	38.81629	29.70532	18.45678
84750	8.15744	8.98820	4.48698	16.66579	11.20729	9.81934	38.10747	24.75916	15.32249	12.05202	10.96695	10.08987	15.75123	11.76913	11.16080	42.32322	29.38461	15.54725
84920	4.86129	7.79835	6.13186	21.49900	19.26544	10.99647	39.35772	26.04592	17.12755	13.91677	8.87608	5.75289	18.42692	19.05002	14.21501	43.71001	28.96500	20.46008	31.30	6.3	0.00	7.68	0.01265	0.01287	0.01626	0.00779	0.00579	0.00636	0.00466	0.01263	0.01677	0.00676	0.00693	0.00877	0.01485	0.01091	0.01192	0.00218	0.00619	0.00866
85080	7.57081	8.38043	5.93106	14.99655	18.34556	11.57730	41.43565	32.88196	19.37695	10.11273	12.91363	7.84107	19.22011	14.39774	12.88203	45.02762	33.19846	21.59117
85240	11.13644	10.61486	12.33430	18.70759	12.29109	10.64407	41.03190	30.16577	17.32758	9.96543	12.92051	7.59983	15.50141	12.60930	10.88150	41.05416	27.09482	14.68955
85410	6.62825	7.11178	5.47391	16.97215	14.28728	9.41075	37.46111	28.45550	15.85642	11.67924	10.03320	6.03070	15.72063	12.38983	10.11989	39.53014	28.54694	17.21998
85570	5.79357	4.71237	5.43248	14.59574	14.09671	10.16114	38.94332	25.32719	16.64374	6.44043	6.38594	7.02988	12.69833	10.36101	12.10399	38.67349	25.17634	17.69167
85730	9.25262	6.07221	5.28252	18.17736	16.36970	10.74506	37.84977	25.77852	17.37460	5.98110	7.40115	6.96993	13.74980	12.75522	11.32775	41.67783	27.18197	16.73106
85900	6.89050	7.06781	7.47179	13.23752	13.32378	10.14198	38.92299	26.64487	14.37641	6.11986	5.80061	4.44905	15.74030	14.45524	10.38216	43.83483	28.86952	21.84243
86060	6.25096	5.29010	5.63422	12.76297	13.53167	15.65507	40.96801	29.07528	17.20663	9.01626	6.47666	4.63141	13.63084	13.05397	11.91172	36.79332	23.87360	15.61875
86220	8.22550	6.64519	5.06338	11.87061	11.37167	9.44615	38.28692	26.75139	13.64637	5.36618	5.62812	3.51751	13.64526	12.92230	11.17677	35.72686	23.43841	12.99153
86380	7.91054	5.35700	5.11732	10.68048	10.50961	12.54133	39.08911	26.47165	16.54076	7.20279	6.57054	3.70160	15.06912	15.20868	14.34524	35.26958	23.43693	13.43008
86550	8.60780	5.68499	2.97149	12.42677	10.89000	10.57993	38.60961	25.35781	15.60793	10.81564	7.34190	5.20450	14.39975	11.65875	10.63391	40.38521	27.57344	14.48505	31.30	5.9	0.00	6.90	0.01265	0.01287	0.01626	0.00779	0.00579	0.00636	0.00466	0.01263	0.01677	0.00676	0.00694	0.00877	0.01485	0.01091	0.01192	0.00218	0.00619	0.00866
86710	6.84162	7.76684	4.65115	10.85625	8.53635	6.97302	40.00887	28.07237	15.65608	3.67561	4.96172	2.49578	15.03800	12.55559	9.77006	35.05118	23.24881	13.33947
86870	6.05289	5.32280	4.13483	10.30093	8.72954	8.36357	37.95869	25.97244	16.03199	5.46564	4.46370	6.71276	14.29109	10.35787	10.48498	38.03794	25.43974	14.82662
87040	5.74483	5.60929	5.55233	20.17984	14.75592	11.52054	40.13418	29.02116	17.48232	6.34513	4.81005	4.45193	16.73848	11.81152	10.32063	37.08332	23.32538	13.27691
87200	6.27284	4.42189	4.58707	10.62576	8.64345	7.91944	40.50526	28.26570	17.49155	3.74050	3.66407	5.12149	14.21014	12.17457	11.19618	35.11850	24.02876	14.51903
87360	9.24750	7.51980	6.33169	10.78518	8.88386	8.14440	39.74079	31.43053	17.78347	3.76077	3.71470	2.73825	15.38020	12.42207	12.09566	37.31746	26.35044	14.47981
87520	8.97462	8.71664	6.74321	11.59419	10.08562	8.69164	46.55539	30.64466	19.59970	4.52462	3.81178	3.75046	17.08404	14.50103	14.64836	39.68582	30.55124	21.53497
87690	7.86343	7.82762	9.75923	19.92152	18.21646	15.41651	41.13260	30.89148	18.10421	7.71570	7.39163	13.60320	13.77778	11.90252	12.46058	42.06499	26.40476	16.80021
87850	7.50695	4.56472	7.78345	15.74081	15.84183	12.68319	40.41447	28.90801	18.82354	7.50107	10.27630	8.51946	13.99442	11.21505	10.84760	39.22457	26.09654	15.89722
88010	4.08545	4.69261	3.51190	12.82852	8.61984	7.33371	37.29852	24.59596	15.32443	6.97370	5.55141	3.28713	11.22729	9.25283	8.93990	36.66731	24.63412	14.07545
88170	6.22011	6.21594	5.61877	13.19069	10.81723	9.12874	39.81922	28.21130	17.03752	3.73552	4.03415	3.41445	12.61791	11.12557	10.45481	38.37058	29.26090	16.58019	31.30	6.0	0.00	7.60	0.01265	0.01288	0.01626	0.00779	0.00579	0.00637	0.00466	0.01263	0.01677	0.00677	0.00694	0.00877	0.01485	0.01091	0.01192	0.00218	0.00619	0.00866
88340	6.44329	4.56832	3.32141	12.69960	11.34636	9.11983	37.24851	26.80460	15.18932	8.27103	4.80751	3.98922	13.45220	11.40894	7.93784	39.48110	23.36949	12.99736
88500	4.87579	6.19462	4.42204	14.28549	10.14145	9.06534	36.76138	26.41596	15.21339	4.71197	3.97619	2.38920	14.00825	10.33342	10.08587	35.95216	23.96500	14.21541
88660	5.57228	6.00643	6.88474	11.26812	9.64024	11.92905	38.70164	27.89247	16.67128	8.55970	10.81781	3.90865	14.22868	13.39514	10.83496	38.92598	30.47307	18.98184
88830	6.98518	5.59077	4.42974	14.74108	16.54773	13.15170	38.63673	27.21809	18.40948	5.30365	4.26413	6.61241	15.43874	11.91143	14.22653	38.30155	24.07673	13.96975
88990	9.12475	7.86251	7.47738	11.93041	11.46712	8.02508	40.73905	27.92768	16.68225	4.52781	3.27613	2.33796	13.95237	12.16251	9.63616	38.22446	24.72560	15.90938
89150	7.91645	8.17835	7.23416	14.33519	9.72605	8.49761	42.17735	29.69520	18.17389	5.39690	4.44685	4.43977	16.17022	12.56665	10.92528	39.54321	27.59986	16.10194
89310	6.49987	6.74665	5.87700	10.64618	8.61492	6.93033	39.49857	26.66963	15.33331	4.35521	4.00699	5.81321	12.04427	11.67190	11.56796	35.90198	24.15313	14.56655
89480	7.63686	5.45264	3.36992	11.52163	10.93083	9.56723	38.08942	29.66592	17.40776	4.12343	3.02654	3.66124	15.10555	14.58173	10.70692	37.68146	25.07886	13.84084
89640	5.59265	4.55532	4.22109	11.70970	9.30319	7.30833	36.19500	24.58913	13.98309	5.31314	2.84271	3.06098	10.91531	8.90918	7.96513	37.04891	26.38167	18.20783
89800	6.12071	5.18499	4.23444	13.25805	16.29695	15.30481	37.42119	27.08817	16.30105	7.89108	6.86473	6.55706	11.05101	9.29879	8.37642	39.11669	28.96094	18.13540	31.30	6.2	0.00	7.62	0.01265	0.01287	0.01626	0.00779	0.00579	0.00637	0.00466	0.01263	0.01677	0.00677	0.00695	0.00878	0.01485	0.01091	0.01192	0.00218	0.00619	0.00866
89970	4.75181	3.84508	5.43804	14.72359	14.40158	8.90092	39.01445	25.84790	15.41308	12.12360	6.29828	3.87465	13.06342	11.74133	11.33514	38.95207	29.14933	17.53922
90130	6.62760	8.72569	6.09568	14.92151	10.33741	7.90489	40.06262	29.20849	16.93071	6.88707	3.87312	2.91563	14.17792	12.26462	10.60969	40.37927	27.08966	16.82438
90300	6.85433	4.76958	4.48689	12.39539	11.94402	9.67059	37.59354	26.01352	15.19433	3.43298	4.39293	3.77399	12.59549	11.72123	9.62735	35.47062	24.24015	13.95776
90460	5.47213	5.50678	4.69161	11.12966	8.81198	8.14415	37.40664	26.22061	16.62620	4.39116	3.81202	3.04189	13.67237	12.14652	9.93877	35.98621	27.45984	17.66484
90620	5.48028	4.78185	4.74585	12.78321	10.29709	9.85835	37.95459	25.38791	15.34465	4.76919	2.77360	2.58256	12.31506	10.49780	8.92179	35.45509	25.34727	13.45203
90790	5.29281	4.10654	5.81577	10.77040	8.49379	9.42108	37.05422	27.11631	16.38355	7.86732	4.06242	4.72767	12.42789	10.03553	9.44477	39.04978	26.18403	16.29879
90950	8.80245	8.32822	6.65979	14.13447	14.44842	11.43744	42.50521	26.31575	15.38892	7.07986	7.47164	11.15482	12.89945	15.95418	11.04912	43.51473	32.95831	22.52868
91110	11.10622	8.74326	6.88987	15.34394	19.13392	19.10062	39.44366	28.11771	15.88593	7.74299	10.66522	7.47030	13.16108	9.41822	9.38209	40.98776	25.37409	14.87218
91280	5.05762	4.20843	2.77988	14.65013	14.39594	10.40884	36.20331	26.39454	14.97164	7.64274	5.73498	4.82541	14.27032	10.68874	9.68224	38.61299	27.45157	18.42698
91440	6.80889	5.60518	5.17359	13.68232	10.32081	9.00278	36.93977	24.66569	14.90430	4.22608	4.24703	4.81835	12.22522	11.48113	8.26003	39.10692	26.57169	15.55968	31.30	6.2	0.00	7.68	0.01265	0.01287	0.01626	0.00779	0.00579	0.00637	0.00466	0.01263	0.01677	0.00677	0.00694	0.00877	0.01485	0.01090	0.01192	0.00218	0.00619	0.00866
91600	6.05843	6.32849	5.70050	12.64472	11.33804	9.56501	38.64561	24.99948	17.31229	6.24997	4.98536	3.15019	14.17545	9.85147	9.87480	38.11479	24.44452	14.46765
91770	7.32984	7.27563	6.33795	12.35779	10.55906	9.54362	37.60738	25.41815	13.84664	6.12101	4.55858	5.08736	11.74051	10.51646	8.81259	39.04565	29.12961	14.38446
91930	5.97686	5.01281	3.97150	13.01655	10.74921	9.35064	37.23555	24.68215	14.03908	5.34702	4.44880	3.97762	12.84209	12.13325	9.07904	39.08274	26.38511	14.77719
92090	5.62622	5.05025	4.83732	12.23755	12.97939	8.80660	37.37084	26.69607	15.17710	5.48452	4.62031	7.64185	14.16939	10.00793	8.87106	41.17945	26.14641	18.32756
92260	7.72456	4.83754	3.87531	13.69600	8.83802	8.52072	41.13042	28.97123	17.23700	3.96733	6.01662	6.25877	14.29351	13.30423	9.13792	39.29494	29.77066	17.54791
92420	5.64399	3.74158	4.40990	12.41407	8.53057	7.71788	36.71561	27.14889	17.57887	7.45482	5.09368	4.48291	14.39173	15.28231	13.75448	39.34059	27.24980	16.16678
92580	4.51931	4.42459	4.70310	14.57765	16.03299	13.96656	36.33657	24.70537	14.57074	8.79016	6.77080	8.54235	11.46014	9.19111	10.70920	36.08541	26.91980	20.24702
92740	8.01136	5.81936	3.25824	11.22917	10.31953	13.48922	36.91666	25.75664	15.44410	4.84151	5.93326	3.53298	11.30452	9.98529	7.80469	35.07154	23.70396	14.77948
92910	5.10042	7.44848	8.36966	18.78485	10.28089	8.87215	36.53717	24.22828	13.50514	7.86385	10.53008	6.49838	12.20162	9.94028	8.67777	39.52143	27.19542	13.20693
93070	8.31180	8.00100	6.70215	10.46134	12.36537	8.66610	39.73739	25.54660	15.53991	4.26822	5.62290	7.58690	10.96441	8.60626	7.30559	35.82074	25.60882	19.01140	31.30	6.3	0.00	7.59	0.01265	0.01288	0.01626	0.00779	0.00579	0.00636	0.00466	0.01263	0.01677	0.00676	0.00694	0.00877	0.01485	0.01090	0.01192	0.00218	0.00619	0.00866
93240	6.30205	6.97071	6.76201	18.47978	12.79573	9.56693	37.31163	27.33055	16.78620	6.41394	6.00916	8.37187	11.90413	9.91484	9.23988	39.23089	31.01343	18.25975
93400	6.12712	4.02681	3.76520	15.45873	13.25389	12.33996	36.64784	25.33518	16.02309	5.54210	3.30483	2.48864	12.79073	10.54187	9.78223	36.45594	24.77400	13.56148
93560	4.44659	4.09275	3.52747	11.24688	9.89882	9.47748	41.30360	27.60837	15.00053	4.84773	5.41335	4.25130	12.96512	13.72454	10.75296	37.68588	24.34197	14.68202
93730	6.01082	6.89557	5.53860	10.95580	14.35853	9.73162	38.59088	27.30288	19.41860	6.46451	8.13527	5.68822	13.98999	11.34483	9.39979	37.10218	25.75136	16.43795
93890	8.24374	8.42956	5.74670	13.62611	13.48504	8.53404	39.32281	27.43317	16.63081	5.12167	5.08346	16.95298	14.82517	15.45585	13.95013	43.06270	28.19298	25.43391
94050	9.57399	9.58272	8.76154	17.85292	27.98183	23.38843	41.28931	28.54107	17.89861	26.85674	36.26733	16.75048	14.41524	13.39084	10.96262	41.31352	29.87018	23.67318
94220	11.02151	9.51316	8.72455	20.11958	18.61416	15.58119	40.55537	31.57601	21.03261	19.21210	14.77115	7.85841	15.58439	17.23674	14.93028	38.49142	24.26603	20.90675
94380	9.53899	9.90226	9.00809	14.01515	9.94379	8.06741	41.54692	31.27539	18.42045	10.89621	10.13832	7.01622	16.74536	13.24921	9.86653	41.61050	25.78715	16.90874
94540	6.50660	7.53373	7.57693	14.54172	11.32183	10.34565	40.56201	30.18517	22.00747	4.54012	3.76914	4.15550	16.21490	14.20201	12.64664	37.44956	26.99657	15.30203
94710	10.74552	7.45286	8.21534	10.98350	9.03432	9.50136	39.60974	30.22461	20.38970	4.54154	5.09404	7.19498	15.38191	11.78258	12.58386	39.18281	26.67384	13.84357	31.36	6.2	0.00	7.63	0.01265	0.01288	0.01626	0.00779	0.00579	0.00636	0.00466	0.01263	0.01677	0.00677	0.00695	0.00877	0.01485	0.01090	0.01192	0.00218	0.00619	0.00866
94870	7.60314	5.27893	3.41058	11.87227	8.84137	8.52790	36.61464	25.11792	15.59043	5.24536	5.23303	5.74770	13.30071	9.82018	7.85916	40.09584	24.33077	18.23215
95030	6.27532	6.92850	2.76133	12.38039	10.61686	10.92093	37.86514	25.11062	14.36416	3.64320	3.06315	4.34920	13.08090	11.26677	9.71193	35.76275	24.99852	13.97703
95200	4.67939	3.94201	2.20738	13.39645	8.76020	6.76682	37.77928	25.13871	15.48637	4.11140	3.62079	4.25250	14.91205	11.25105	7.92109	37.01803	28.98431	14.36645
95360	4.82646	3.50371	3.36859	11.99290	13.49003	14.00581	36.69735	24.50465	15.66056	14.09094	5.92544	8.29984	10.81213	9.15247	7.37079	43.89975	33.49456	19.02761
95520	3.56353	3.45542	2.21758	13.92159	11.32867	9.16642	35.71295	24.11845	13.87384	5.00440	4.98925	3.72015	10.53875	8.29499	7.35969	37.76620	24.96450	13.13387
95690	5.12613	2.78078	2.18480	10.46947	8.66625	8.39681	35.47369	23.32450	12.68144	3.48225	3.04561	2.89611	10.20634	8.54053	7.55392	36.41401	23.86553	14.33208
95850	4.16371	4.17469	3.77099	10.18297	8.25710	7.16038	36.22399	24.28502	14.62936	3.56994	2.81575	2.25385	11.41781	9.66614	8.32445	35.23064	23.24388	13.34657
96010	3.99307	3.09607	2.71552	10.53190	10.08225	7.65073	35.65910	24.50004	13.63761	4.48245	3.51240	2.27725	11.03335	9.24855	7.12731	35.22812	25.30742	18.04041
96180	3.58752	3.26819	2.25586	13.89347	10.21022	9.10163	37.53682	25.76511	14.99126	5.24705	4.54295	3.85143	13.24981	11.19011	9.40744	36.84276	24.21894	15.68111
96340	4.16324	5.48429	5.21421	11.06860	10.38276	7.93514	36.69851	24.93172	13.56213	5.50487	3.48663	4.06010	13.84002	12.81487	12.17309	38.47476	25.46761	14.93409	31.36	6.0	0.00	7.94	0.01265	0.01287	0.01626	0.00779	0.00579	0.00636	0.00466	0.01263	0.01677	0.00677	0.00695	0.00877	0.01485	0.01090	0.01192	0.00218	0.00619	0.00866
96500	5.33191	4.82889	4.24525	12.92107	12.82066	10.11356	36.96009	26.26821	17.33556	7.11385	4.94705	5.71437	13.40625	10.93845	12.72416	36.30505	26.79234	13.74021
96660	4.81535	5.29941	4.98203	12.46855	10.96584	10.24350	38.14522	26.27199	14.53124	4.61233	3.77701	4.31710	12.59471	11.25697	9.59379	36.21818	28.42478	15.35886
96830	6.14057	5.04089	2.94918	11.75467	11.84397	9.61408	36.33767	24.98738	14.32243	5.20765	5.69912	5.42315	12.62840	10.29563	7.80782	38.57315	28.49145	17.73987
96990	5.43652	4.76724	3.31072	13.99832	10.72764	8.95826	36.07470	25.49583	15.50592	4.81514	3.42482	4.14226	14.18815	11.86166	8.58427	35.22685	24.27157	14.73724
97150	4.82064	5.71463	4.63841	12.73906	9.90377	8.94428	37.05226	25.01589	15.42020	5.20157	3.49993	2.47661	11.32761	8.86268	7.84481	35.64087	26.18521	15.38661
97320	5.91614	7.26994	5.54824	12.07825	11.99421	9.36644	39.04069	28.27849	15.05623	5.06873	10.77084	5.29941	14.22833	9.43237	10.94821	40.74780	28.13046	15.74653
97480	4.78279	4.27496	4.03431	15.02045	11.77997	10.01352	38.53021	28.42920	15.68321	6.78648	4.04421	4.55040	12.86777	10.02590	8.74976	36.72025	24.41519	16.06585
97650	4.35384	6.03258	5.22646	13.06024	11.71535	10.57516	36.88715	24.52499	13.33109	4.43339	7.09621	6.41290	13.72048	12.36659	8.64348	43.40684	30.17346	15.45055
97810	7.85178	6.78936	6.58902	15.37599	15.53170	11.34821	38.86650	28.78982	18.26162	8.83363	11.22645	8.36574	13.38271	12.61252	11.40167	38.17340	27.29737	17.40499
97970	6.42599	6.82407	5.20737	15.95712	14.13476	12.03573	41.35353	29.44142	20.05712	12.07948	12.73985	5.74237	17.29607	13.00748	13.65200	40.32817	28.90026	15.97097	31.36	6.0	0.00	7.55	0.01265	0.01288	0.01626	0.00779	0.00579	0.00636	0.00466	0.01263	0.01677	0.00677	0.00694	0.00877	0.01485	0.01090	0.01192	0.00218	0.00619	0.00866
98140	6.56388	6.70091	4.40960	12.38326	11.47198	11.07408	36.88756	25.90707	15.18332	4.92557	5.47923	4.92537	12.14846	9.90328	9.83429	39.02184	27.04525	14.05892
98300	7.30590	5.57810	4.62869	11.82357	9.88442	11.87128	36.74233	25.68874	19.13406	7.13081	6.52543	6.66903	12.69473	11.22545	11.21797	40.62727	33.97943	20.97717
98460	7.22733	6.80397	6.35842	14.77000	12.43197	13.44648	37.88011	26.02221	15.93836	12.31833	10.95573	7.05125	11.87698	10.51136	8.31908	38.51934	24.64672	13.11175
98630	4.76705	5.22238	3.90184	12.61920	9.28991	7.49554	36.46422	27.03226	17.90540	4.19432	3.56581	3.12794	10.90724	11.54901	9.62051	37.20293	25.54104	16.46302
98790	5.93203	6.17397	3.51447	12.11783	9.23873	7.50427	37.76495	25.77803	14.54912	4.91440	5.43995	3.81262	12.17310	12.87052	13.05855	38.54044	27.16424	19.11397
98950	6.06198	8.14737	6.27487	15.74962	16.69645	13.56914	39.04132	28.01386	17.56757	7.49401	9.38039	6.19839	14.93749	13.97617	9.85374	41.23758	26.56358	14.72967
99120	9.12901	9.56793	8.92676	12.69157	10.56113	10.34959	39.49181	27.69984	17.69125	8.82482	7.73514	12.65971	12.78838	12.66910	9.06175	41.31395	26.59555	16.41179
99280	5.86677	7.20344	5.30514	16.90829	9.79826	8.11961	41.12044	26.92419	16.22338	5.26007	5.81401	4.43104	13.65191	11.82436	9.45491	36.75721	23.65034	13.63826
99440	4.77271	7.54078	4.44845	14.57381	12.52659	9.15674	38.60152	27.66392	15.39218	4.38909	3.22735	3.16063	13.11941	11.02858	13.86431	35.74005	23.48681	13.25046
99610	6.13253	9.22772	6.87461	11.97239	9.56118	7.13608	38.20187	29.06055	16.27264	4.95969	4.76973	4.45874	13.76744	10.64167	9.16289	37.67209	24.03410	13.28939	31.30	6.1	0.00	7.57	0.01265	0.01287	0.01626	0.00779	0.00579	0.00636	0.00466	0.01263	0.01677	0.00677	0.00694	0.00877	0.01485	0.01091	0.01192	0.00218	0.00619	0.00866
99770	7.42780	7.80481	8.23259	12.06010	11.56709	10.55355	38.71309	26.60413	15.27568	5.57187	4.21481	5.74507	13.75738	11.79699	11.05760	38.35165	25.53869	15.18079
99930	4.76830	6.05625	5.04397	13.04649	9.47936	7.53720	39.41517	28.37498	14.42570	3.91175	3.10637	6.34425	13.58901	11.35956	10.62807	39.97237	23.61221	14.13940
100100	8.43409	6.20108	6.62849	13.28083	13.47068	9.22869	37.64481	25.15545	14.63765	5.77986	4.74236	4.50334	16.00467	11.99650	9.84958	37.41552	24.07400	14.31546
100260	6.37230	5.94015	6.52932	11.14646	14.11752	11.51910	39.57277	26.55582	15.72384	7.33949	8.20691	6.63981	15.72338	13.19221	13.40972	38.61067	27.02821	14.74856
100420	10.22458	9.70173	7.26341	19.56892	14.84615	10.24532	39.06254	29.11232	14.02352	6.02787	4.55073	2.48938	13.08738	11.34850	7.65031	37.35122	23.91873	13.31940
100590	6.68095	5.42695	4.89596	12.20698	10.12244	10.07398	36.94542	25.38331	19.97116	6.81262	4.58740	3.52773	14.20351	13.55533	14.90803	36.12574	24.64594	15.58146
100750	8.79226	7.67560	7.21449	17.86047	15.16916	12.76680	41.90094	27.66742	16.60577	6.86427	7.08148	5.77599	14.97633	13.64212	11.06009	44.56972	31.64940	18.95642
100910	10.31929	7.88181	5.28212	15.97018	17.26171	12.83537	38.11100	25.45099	15.14751	7.86588	6.21826	6.46789	14.23059	10.70137	11.78926	37.97693	27.77116	17.31489
101080	6.64570	6.81346	4.33717	17.48827	12.43251	10.54386	40.28464	27.70658	17.20780	8.28476	6.57018	8.07064	15.35995	12.97599	11.49818	39.59556	24.92405	14.32276
101240	6.89841	8.13532	5.80893	14.00108	11.22291	8.77812	42.40594	27.57555	19.75275	6.36347	9.84228	6.70910	17.06552	17.20853	13.05034	42.51487	33.19006	19.39411	31.30	6.1	0.00	7.59	0.01265	0.01287	0.01626	0.00779	0.00579	0.00637	0.00466	0.01263	0.01677	0.00677	0.00694	0.00877	0.01485	0.01091	0.01192	0.00218	0.00619	0.00866
101410	8.37933	6.89236	6.56171	15.38770	11.86119	11.39399	37.15242	25.87681	15.97029	5.36925	4.95033	2.96981	12.68094	13.90253	10.58552	35.48693	25.55456	15.67677
101570	6.33613	5.86753	2.86072	11.12587	8.66976	7.64547	37.29609	24.64609	14.21354	4.27634	4.21443	2.73991	13.26795	9.12063	8.56071	35.72588	24.07227	14.30675
101730	5.69853	4.12922	3.50350	11.75969	10.14988	7.98953	37.84566	26.10548	17.11734	6.03480	4.78074	4.76987	12.78441	12.45101	9.12685	35.21939	23.78844	13.18566
101900	6.75517	6.00029	6.13480	12.62469	9.67246	7.92567	36.95321	24.50029	14.94157	3.63880	3.78513	3.48985	12.79141	10.05344	10.85369	36.08296	23.70839	14.10692
102060	7.56292	5.11399	7.79587	11.90428	9.75613	8.07237	39.86002	27.36494	18.97970	5.86569	5.16531	5.02247	17.87519	16.29619	9.30469	37.59491	25.07507	15.05934
102220	8.28283	7.33665	4.94652	11.53059	8.85141	6.85030	37.85275	29.12136	20.41525	4.53394	3.69413	5.33305	17.43199	13.49705	12.55280	35.40295	25.44740	15.36527
102390	9.27568	8.84630	7.75648	11.72041	13.87930	13.28313	40.26695	27.99351	17.64414	6.99517	5.26522	9.01868	13.78105	12.31416	11.64547	40.43815	25.20178	13.93714
102550	8.23614	5.72257	7.12216	15.97736	13.20375	10.65214	39.07093	29.25893	16.32307	8.53958	7.53197	7.14704	13.74315	11.60205	10.24108	38.76433	25.36523	14.41675
102710	6.08439	5.38426	5.10243	12.55083	10.19201	8.10195	41.05566	28.78730	19.57021	6.26914	5.84635	4.93903	13.81526	11.85041	14.50886	39.42678	26.74328	19.44704
102880	8.31826	5.48538	5.26558	16.72306	17.57134	12.44901	41.90258	31.44261	20.12150	7.20357	7.63312	8.64408	17.85468	14.94308	11.52261	39.59918	27.41558	14.62404	31.36	6.1	0.00	7.63	0.01265	0.01287	0.01626	0.00779	0.00579	0.00637	0.00467	0.01263	0.01676	0.00677	0.00694	0.00877	0.01485	0.01091	0.01192	0.00218	0.00619	0.00866
103040	7.48809	6.70524	6.12037	10.85948	9.52309	8.15681	38.63444	25.93531	15.02249	6.24726	3.92168	5.12313	12.75318	10.25625	9.84750	40.16271	29.87777	14.34641
103200	7.22743	9.03169	5.26445	14.18227	13.68977	8.37800	39.35070	27.34647	15.23479	5.28219	3.40635	3.28460	14.13125	13.58769	13.29582	35.89502	23.82459	15.38167
103370	7.66943	7.52693	5.82866	10.67819	9.27345	7.91344	39.32601	26.49692	17.39056	4.66255	3.77797	4.19307	14.79183	12.69427	11.66646	39.13834	27.59231	16.09809
103530	6.91637	7.24653	5.92182	13.62056	10.82610	10.20130	39.91840	27.78097	13.71831	8.85784	6.21045	3.63135	12.31947	11.60151	10.70695	35.75015	24.31051	15.43628
103690	7.49178	6.27705	4.05357	11.22904	10.97857	8.65356	38.13346	26.83222	16.93642	5.05258	4.94209	3.76710	12.66452	12.35376	10.12227	38.84915	24.30830	15.12579
103860	8.04327	7.74670	7.25265	11.26425	10.75603	8.89957	39.45598	27.30988	16.72462	5.22774	5.13097	6.32726	15.20445	13.34611	13.53910	40.41429	26.47523	15.12730
104020	8.03950	8.28096	5.52722	11.42412	9.86667	7.79931	42.41679	28.04358	14.82386	4.08870	4.06580	2.79483	12.24644	12.08031	15.67128	36.87965	25.70053	15.52054
104180	9.49113	9.29901	6.46911	12.16755	10.13954	8.87016	43.61463	30.30612	20.57429	5.32487	5.12037	5.11492	15.66433	15.07522	10.22885	36.16481	26.46445	14.47436
104350	7.03991	6.21601	6.19645	11.14455	10.79108	9.12433	37.05405	24.86760	14.48153	5.13879	4.55676	3.19001	12.93916	10.52121	9.20358	35.85457	23.72146	14.09203
104510	5.52386	4.70803	4.75382	11.82297	9.08955	8.16323	38.51869	24.84524	17.32824	4.13382	3.91344	3.34796	13.75893	12.69647	10.76827	36.55315	24.95473	14.93300	31.30	6.2	0.00	7.67	0.01265	0.01287	0.01626	0.00779	0.00579	0.00637	0.00466	0.01263	0.01676	0.00677	0.00695	0.00877	0.01485	0.01090	0.01192	0.00218	0.00619	0.00866
104670	5.97061	4.74507	4.95403	12.41555	10.41377	7.49666	41.34796	26.14458	16.23815	4.58401	3.20335	2.68559	15.63025	14.24354	12.86993	36.50566	24.69979	14.49137
104830	7.45922	4.81387	4.65928	11.23149	10.15275	8.74314	37.65878	26.53892	17.04547	4.60010	4.37287	3.75811	18.51991	12.96241	11.42040	36.37729	24.81591	16.21665
105000	6.67638	7.06685	9.59997	14.16085	11.86602	10.96480	40.58575	26.45106	17.55666	5.33317	5.19607	6.12497	15.96387	13.16561	12.33932	37.85288	27.29089	16.84847
105160	6.99452	6.22202	5.68680	16.14401	11.27927	10.07761	38.59698	28.77507	15.61576	6.69443	5.66672	4.99918	12.49485	12.18535	12.54930	37.16580	24.94045	13.41684
105320	8.28506	5.60300	5.06092	11.53406	9.72615	8.70454	41.00186	29.09529	18.51620	5.31158	7.34476	8.01928	17.04467	13.10050	12.87049	40.81769	27.50283	17.00758
