WetView ver 7.1	07-17-2018	18:21:29
AC9 Absorption and Attenuation Meter
00000266		; Serial number
2	; structure version number
Reserved
0.000000	0.000000		; Depth calibration
19200			; Baud rate
0.100000			; Path length (meters)
31			; number of temperature calibration bins
				12.59339	13.44920	14.48425	15.49668	16.50852	17.49564	18.50545	19.52458	20.50176	21.48889	22.47318	23.48707	24.50962	25.49370	26.49784	27.51372	28.50746	29.47237	30.47938	31.50214	32.50470	33.49235	34.50337	35.50914	36.50618	37.52058	38.51018	39.51308	40.49994	41.49866	42.47204	; temperature bins
a650	Blue	20.34952		-0.00383	-0.00415	-0.00430	-0.00391	-0.00363	-0.00317	-0.00269	-0.00237	-0.00179	-0.00130	-0.00099	-0.00071	-0.00015	0.00000	0.00004	-0.00001	0.00015	0.00036	0.00058	0.00101	0.00161	0.00132	0.00160	0.00169	0.00242	0.00273	0.00336	0.00365	0.00427	0.00566	0.00670		; offset and temperature correction info
a676	Green	20.51193		-0.00398	-0.00384	-0.00360	-0.00306	-0.00302	-0.00255	-0.00235	-0.00212	-0.00163	-0.00136	-0.00118	-0.00089	-0.00029	0.00000	0.00068	0.00082	0.00099	0.00137	0.00145	0.00212	0.00260	0.00252	0.00321	0.00354	0.00457	0.00535	0.00617	0.00648	0.00742	0.00887	0.01002		; offset and temperature correction info
a715	Brown	20.23230		-0.00421	-0.00394	-0.00391	-0.00291	-0.00264	-0.00192	-0.00204	-0.00179	-0.00188	-0.00239	-0.00180	-0.00187	-0.00099	0.00000	0.00084	0.00162	0.00188	0.00224	0.00321	0.00381	0.00466	0.00528	0.00588	0.00696	0.00859	0.01041	0.01148	0.01282	0.01333	0.01456	0.01617		; offset and temperature correction info
c510	Red	20.40042		-0.00261	-0.00247	-0.00258	-0.00225	-0.00203	-0.00197	-0.00199	-0.00203	-0.00154	-0.00103	-0.00069	-0.00019	-0.00007	0.00000	0.00011	-0.00021	-0.00042	-0.00056	-0.00040	0.00011	0.00036	0.00050	0.00077	0.00079	0.00050	0.00042	0.00043	0.00092	0.00147	0.00200	0.00232		; offset and temperature correction info
c532	Magenta	20.40760		-0.00248	-0.00265	-0.00278	-0.00279	-0.00296	-0.00292	-0.00238	-0.00206	-0.00129	-0.00096	-0.00092	-0.00052	-0.00009	0.00000	0.00007	-0.00049	-0.00136	-0.00107	-0.00079	-0.00065	-0.00074	-0.00105	-0.00152	-0.00192	-0.00236	-0.00269	-0.00252	-0.00233	-0.00172	-0.00128	-0.00067		; offset and temperature correction info
c555	Black	20.50654		-0.00053	-0.00063	-0.00106	-0.00094	-0.00068	-0.00055	-0.00053	-0.00039	-0.00028	-0.00025	-0.00011	-0.00035	-0.00007	0.00000	-0.00037	-0.00055	-0.00036	-0.00014	0.00019	0.00044	0.00032	0.00040	0.00050	0.00028	0.00014	0.00013	0.00030	0.00073	0.00117	0.00176	0.00241		; offset and temperature correction info
a412	LtBlue	17.15231		-0.01972	-0.01823	-0.01612	-0.01381	-0.01272	-0.01080	-0.00959	-0.00866	-0.00710	-0.00532	-0.00354	-0.00148	-0.00028	0.00000	0.00176	0.00297	0.00394	0.00440	0.00453	0.00487	0.00804	0.00856	0.01065	0.01248	0.01388	0.01439	0.01659	0.01881	0.02256	0.02450	0.02719		; offset and temperature correction info
a440	LtGreen	18.00171		-0.00729	-0.00642	-0.00581	-0.00502	-0.00426	-0.00349	-0.00244	-0.00218	-0.00179	-0.00101	-0.00046	-0.00006	0.00036	0.00000	0.00040	0.00045	0.00030	-0.00015	-0.00024	-0.00035	0.00012	-0.00013	-0.00033	-0.00089	-0.00142	-0.00189	-0.00231	-0.00205	-0.00140	-0.00140	-0.00146		; offset and temperature correction info
a488	Yellow	18.86491		-0.00113	-0.00102	-0.00106	-0.00064	-0.00027	-0.00020	-0.00030	-0.00037	-0.00047	-0.00059	-0.00052	-0.00012	0.00008	0.00000	0.00025	0.00012	-0.00013	-0.00043	-0.00065	-0.00076	-0.00025	0.00010	0.00090	0.00111	0.00113	0.00104	0.00073	0.00068	0.00120	0.00186	0.00258		; offset and temperature correction info
c650	Blue	20.46075		-0.00145	-0.00097	-0.00092	-0.00139	-0.00185	-0.00196	-0.00237	-0.00266	-0.00238	-0.00163	-0.00083	-0.00041	-0.00010	0.00000	0.00005	-0.00001	0.00015	0.00034	0.00029	0.00065	0.00101	0.00164	0.00126	0.00156	0.00175	0.00270	0.00287	0.00371	0.00407	0.00473	0.00534		; offset and temperature correction info
c676	Green	20.10118		-0.00170	-0.00144	-0.00149	-0.00177	-0.00188	-0.00194	-0.00198	-0.00196	-0.00177	-0.00156	-0.00140	-0.00091	-0.00033	0.00000	0.00050	0.00092	0.00110	0.00141	0.00167	0.00199	0.00216	0.00265	0.00269	0.00289	0.00315	0.00374	0.00367	0.00408	0.00486	0.00561	0.00646		; offset and temperature correction info
c715	Brown	19.91219		-0.01201	-0.01097	-0.00859	-0.00680	-0.00651	-0.00592	-0.00535	-0.00440	-0.00387	-0.00303	-0.00222	-0.00153	-0.00028	0.00000	0.00093	0.00149	0.00247	0.00322	0.00330	0.00427	0.00373	0.00464	0.00536	0.00551	0.00643	0.00733	0.00779	0.00884	0.00899	0.01021	0.01120		; offset and temperature correction info
a510	Red	19.21192		0.00201	0.00193	0.00158	0.00098	0.00089	0.00049	0.00011	-0.00016	-0.00016	-0.00005	0.00028	0.00025	0.00006	0.00000	0.00035	-0.00022	-0.00023	-0.00080	-0.00144	-0.00154	-0.00153	-0.00204	-0.00220	-0.00219	-0.00190	-0.00128	-0.00069	-0.00018	0.00068	0.00152	0.00241		; offset and temperature correction info
a532	Magenta	19.41084		-0.00097	-0.00072	-0.00060	-0.00081	-0.00062	-0.00071	-0.00040	0.00020	0.00028	0.00043	0.00000	-0.00035	0.00007	0.00000	-0.00011	-0.00059	-0.00080	-0.00098	-0.00137	-0.00162	-0.00163	-0.00130	-0.00073	-0.00018	0.00090	0.00185	0.00175	0.00247	0.00291	0.00327	0.00349		; offset and temperature correction info
a555	Black	19.69776		0.00171	0.00183	0.00183	0.00186	0.00191	0.00170	0.00115	0.00131	0.00097	0.00073	0.00060	0.00013	0.00015	0.00000	0.00014	-0.00029	-0.00066	-0.00082	-0.00116	-0.00139	-0.00134	-0.00167	-0.00119	-0.00093	-0.00048	0.00053	0.00111	0.00095	0.00178	0.00206	0.00273		; offset and temperature correction info
c412	LtBlue	19.91180		-0.02051	-0.01853	-0.01589	-0.01311	-0.01059	-0.00877	-0.00705	-0.00581	-0.00413	-0.00231	-0.00098	-0.00066	-0.00011	0.00000	-0.00013	-0.00085	-0.00170	-0.00170	-0.00302	-0.00330	-0.00429	-0.00551	-0.00626	-0.00775	-0.00978	-0.01181	-0.01113	-0.01108	-0.01116	-0.01192	-0.01291		; offset and temperature correction info
c440	LtGreen	20.06241		-0.01064	-0.00992	-0.00892	-0.00766	-0.00639	-0.00531	-0.00478	-0.00384	-0.00287	-0.00187	-0.00102	-0.00063	-0.00023	0.00000	-0.00007	-0.00053	-0.00090	-0.00119	-0.00169	-0.00197	-0.00226	-0.00257	-0.00260	-0.00289	-0.00394	-0.00470	-0.00481	-0.00493	-0.00520	-0.00580	-0.00620		; offset and temperature correction info
c488	Yellow	20.35984		-0.01125	-0.01082	-0.00966	-0.00833	-0.00726	-0.00661	-0.00579	-0.00500	-0.00389	-0.00278	-0.00167	-0.00113	-0.00041	0.00000	0.00055	0.00121	0.00187	0.00226	0.00222	0.00251	0.00281	0.00359	0.00414	0.00427	0.00401	0.00404	0.00486	0.00563	0.00638	0.00684	0.00718		; offset and temperature correction info
0.003500	0.004000	0.015000	0.020000	0.015000	0.020000	2500.000000	2000.000000	1000.000000	; maxANoise	maxCNoise	maxADifference	maxCDifference	minACounts	minCCounts	minRCounts	maxTempSdev	maxDepthSdev
0			; auxilliary capabilities
1			; acquisition binsize
0	3.38116	3.72233	2.61587	15.74103	14.90263	14.12096	11.69247	9.11565	6.18930	11.69860	11.43481	10.48019	5.35100	4.52694	4.01502	22.65368	19.60239	16.74176	25.39	6.1	0.00	7.34	0.01274	0.01290	0.01671	0.00772	0.00575	0.00631	0.00468	0.01266	0.01687	0.00671	0.00682	0.00886	0.01491	0.01097	0.01198	0.00216	0.00612	0.00861
170	3.36108	3.55926	2.65187	15.52523	14.75634	14.02945	11.57274	8.96107	6.23114	11.91437	11.45749	10.50944	5.20214	4.54805	4.19588	23.03023	19.85104	16.87928
330	3.34437	3.64197	2.58919	15.81375	14.98858	14.21472	11.64650	9.05198	6.30286	11.87340	11.74493	10.55062	5.48865	4.61956	4.10314	22.83279	20.37624	17.14821
490	3.44322	3.65173	2.57926	15.76067	15.21128	14.19339	11.56837	9.07106	6.11872	12.15660	11.56485	10.36886	5.44007	4.59538	4.16943	22.80806	19.87518	16.86784
660	3.42761	3.74185	2.70474	16.02039	14.88538	14.00179	11.66854	8.98998	6.30664	11.82282	11.44076	10.54447	5.29491	4.54575	4.07233	22.77861	19.96143	16.92593
820	3.50473	3.64990	2.69901	15.66033	15.18586	14.11861	11.63228	9.13700	5.99922	11.94355	11.71011	10.75291	5.47237	4.81203	4.10722	22.44603	19.71325	16.54662
990	3.56300	3.70601	2.60073	15.48243	15.02087	13.95780	11.58907	8.99308	6.00936	11.82979	11.12665	10.26138	5.34152	4.52593	4.14473	22.80511	19.76971	16.78346
1150	3.40264	3.57413	2.62272	15.52580	14.84358	13.93661	11.60404	9.01329	6.22339	11.82109	11.22374	10.15252	5.31610	4.62473	4.09543	22.51203	19.75459	16.62592
1310	3.39187	3.64153	2.51612	15.73580	14.80510	14.06442	11.46638	8.93040	6.10744	11.98047	11.35669	10.60668	5.42301	4.71145	4.22846	22.78928	20.33044	17.27793
1480	3.68921	3.90811	2.94256	16.08981	15.38593	14.33636	11.92251	9.47560	6.43620	12.11918	11.69827	10.75164	5.53752	4.89206	4.29330	23.41721	20.41498	17.33283
1640	3.80685	4.03546	2.77728	16.74027	15.27450	14.45481	11.66801	9.10563	6.24772	12.40691	11.87073	11.15490	5.48707	4.81110	4.27841	23.24846	20.22999	17.04620	25.45	6.1	0.00	7.34	0.01274	0.01290	0.01671	0.00772	0.00575	0.00631	0.00468	0.01267	0.01687	0.00671	0.00682	0.00886	0.01491	0.01097	0.01198	0.00216	0.00612	0.00861
1810	3.56497	3.80024	2.79927	16.17704	15.46160	14.29068	11.81864	9.12139	6.26535	12.34942	11.92461	10.60708	5.45525	4.72490	4.18459	23.16633	20.49337	17.17024
1970	3.51676	3.67245	2.71758	16.16905	15.16929	14.31579	11.63431	9.37206	6.26066	12.27480	11.85341	10.71146	5.44527	4.75381	4.17168	23.07652	20.09801	16.98117
2130	3.49800	3.79318	2.76735	16.45597	15.05012	14.39652	11.86450	9.09299	6.28533	11.97002	11.68223	10.72874	5.37819	4.59705	4.06073	22.94854	20.29792	16.76550
2300	3.43248	3.57422	2.52018	15.97884	15.00600	14.21639	11.61893	8.95265	6.10161	11.63731	11.50920	10.47604	5.37850	4.63675	3.98239	22.87216	19.64788	16.67971
2460	3.36304	3.51386	2.51869	15.72434	14.90410	14.04816	11.44469	8.86762	6.03872	11.96428	11.59809	10.40964	5.28614	4.47503	4.06983	22.71674	19.89599	16.74613
2630	3.34520	3.65072	2.55948	15.83644	14.81750	13.99948	11.57498	9.03012	6.17422	11.83579	11.45052	10.79858	5.27032	4.63793	3.96405	22.96876	20.07830	16.86555
2790	3.34667	3.69869	2.61985	15.87589	15.01210	14.12495	11.55889	8.91686	6.14121	11.69306	11.23678	10.47340	5.35185	4.63281	4.02106	22.80225	19.64115	16.76105
2950	3.32641	3.60348	2.55377	15.89633	14.66326	13.83876	11.51426	9.33550	6.26747	11.94622	11.68095	10.45665	5.31977	4.48701	3.97954	22.75739	19.73021	16.75946
3120	3.33962	3.54615	2.58390	15.80587	15.01857	13.92995	11.50724	9.08432	6.01869	11.99350	11.46889	10.44782	5.28020	4.57583	4.04402	22.89966	20.00341	16.81314
3280	3.53106	3.69925	2.67886	15.80212	14.85661	14.26696	11.52915	9.06873	6.18615	11.84093	11.34298	10.64991	5.29810	4.56233	4.01499	22.67350	19.83803	16.69293	25.45	6.1	0.00	7.34	0.01274	0.01290	0.01671	0.00772	0.00575	0.00631	0.00468	0.01266	0.01687	0.00671	0.00682	0.00886	0.01491	0.01097	0.01198	0.00216	0.00612	0.00860
3450	3.32396	3.62158	2.53957	15.72476	14.98158	14.12202	11.58143	9.03769	6.12207	11.73273	11.47028	10.58389	5.22323	4.55720	4.01928	22.82865	19.90805	16.67490
3610	3.43050	3.65149	2.53409	15.75373	14.96845	13.99973	11.61378	9.13014	6.09698	11.90656	11.35944	10.75911	5.35574	4.62540	4.03634	22.73447	19.77199	16.71441
3770	3.43285	3.64389	2.70412	16.01281	15.06665	14.26145	11.54076	9.03842	6.11045	11.92108	11.65342	10.90525	5.31205	4.71943	4.07268	23.14256	20.06174	16.96465
3940	3.48926	3.62453	2.68936	16.04557	15.18555	14.36912	11.74779	9.23823	6.26148	12.66725	12.01405	10.68007	5.39734	4.74566	4.05929	22.83642	19.92657	16.82475
4100	3.41753	3.65148	2.63798	15.88017	15.28754	14.09012	11.70954	9.25880	6.18486	11.94918	11.44411	10.56559	5.47012	4.61669	4.21512	22.66440	19.93300	17.14778
4270	3.40563	3.57818	2.61674	16.23109	14.97068	14.15001	11.55696	9.08761	6.07037	11.96281	11.63932	10.44846	5.47354	4.68368	4.17080	22.66586	19.96226	17.09203
4430	3.41971	3.69165	2.57332	16.01889	15.22079	14.17999	11.56308	9.12990	6.80826	11.74265	11.48208	10.54964	5.70823	4.69009	4.18958	22.81129	20.08552	16.86252
4600	3.55661	3.82040	2.74072	15.76208	14.83830	14.37690	11.81711	9.13518	6.34314	11.90392	11.49581	10.60099	5.34018	4.69610	4.17933	23.05370	19.86033	17.19507
4760	3.51707	3.66450	2.72627	16.31827	15.03050	14.13091	11.81234	9.16211	6.27496	12.04329	11.76212	10.65348	5.38467	4.65001	4.21303	22.60892	19.92100	16.67940
4920	3.50526	3.67139	2.75257	15.75124	14.89245	14.17491	12.31156	9.48484	6.24822	11.98396	11.33020	10.39626	5.53317	4.71424	4.27009	22.57023	19.80675	16.85648	25.51	6.2	0.00	7.39	0.01274	0.01290	0.01671	0.00772	0.00575	0.00631	0.00468	0.01267	0.01687	0.00671	0.00682	0.00886	0.01491	0.01097	0.01198	0.00216	0.00612	0.00860
5090	3.41418	3.54586	2.54894	15.83159	14.86913	13.96038	11.49412	9.04719	6.01009	11.93339	11.68477	10.59910	5.30251	4.55839	4.10946	22.71201	19.93761	16.64717
5250	3.35969	3.56799	2.70866	16.07595	15.20540	14.34921	11.70861	9.08341	6.08847	12.16311	11.46671	10.61548	5.39690	4.67251	4.13939	22.89852	20.00814	16.98200
5420	3.39409	3.63878	2.73129	16.23489	15.15322	14.28715	11.68346	9.13197	6.10804	12.22500	11.96335	10.72886	5.34615	4.61069	4.13457	23.00287	20.10338	16.83001
5580	3.38895	3.64154	2.60486	15.86191	14.94173	14.09767	11.51988	9.02181	6.19768	12.24057	11.63706	10.35844	5.41273	4.64721	4.03987	23.00024	19.92704	17.00323
5740	3.42198	3.60315	2.62462	15.97322	15.01975	14.12121	11.65639	9.14415	6.13070	11.83097	11.68218	10.52165	5.24931	4.51926	4.07076	23.01754	20.19747	16.95264
5910	3.32089	3.54291	2.51492	16.19060	15.22706	14.42292	11.57941	8.97646	6.04955	11.98134	11.71246	10.66621	5.33464	4.62900	3.99187	22.77208	20.09752	17.10717
6070	3.39523	3.59895	2.55436	16.23479	15.20140	14.38503	11.64670	9.08003	6.05486	11.92680	11.62706	10.77695	5.35911	4.62997	3.97228	22.98221	20.28060	17.04347
6230	3.48003	3.54551	2.58972	15.85705	15.10492	14.23517	11.92946	9.24249	6.59838	12.05747	11.64895	10.87470	5.76434	4.69549	4.21160	23.09693	20.20547	16.96102
6400	3.41005	3.59311	2.62964	16.17834	15.10370	14.03849	11.53315	9.09605	6.17058	11.86796	11.83434	10.67562	5.36643	4.64938	4.08131	22.88811	20.11835	17.06926
6560	3.42036	3.65954	2.60626	16.08743	15.06641	14.09012	11.62309	9.09309	6.31814	11.91190	11.65324	10.64392	5.48082	4.72242	4.15092	22.86797	19.91668	16.95378	25.45	6.1	0.00	7.38	0.01274	0.01290	0.01670	0.00772	0.00575	0.00631	0.00468	0.01266	0.01687	0.00671	0.00682	0.00886	0.01491	0.01097	0.01198	0.00216	0.00612	0.00860
6730	3.38278	3.69007	2.66550	16.14801	15.06623	14.18240	11.85851	8.87445	6.17798	12.00932	11.86120	10.79402	5.32917	4.60698	4.12478	22.88877	20.12855	16.84492
6890	3.50489	3.71850	2.58810	16.00998	15.16498	14.29198	11.63232	9.03995	6.27261	12.21301	11.66259	11.10994	5.33789	4.54180	4.10742	23.28150	20.09792	17.14690
7050	3.53518	3.86220	2.86666	16.47082	15.80236	14.87379	11.90991	9.33563	6.43385	13.35115	12.31906	11.50633	5.70455	5.11323	4.67590	23.95763	21.10535	17.90019
7220	3.97068	4.14642	3.17460	17.12708	16.05676	14.98886	12.23699	9.69128	6.74085	12.98203	12.74464	11.61754	5.85211	5.12649	4.62572	23.82612	21.03966	17.76593
7380	3.76489	4.00897	2.97049	16.82554	15.46198	14.69527	11.89222	9.50654	6.46043	12.69620	12.20605	11.33782	5.54944	5.12201	4.51939	23.36731	20.41717	17.22417
7550	3.60077	3.87727	2.87770	16.40302	15.55453	14.70305	11.96552	9.27799	6.34788	12.31590	11.74156	10.91441	5.48437	4.70989	4.23622	22.96639	20.22278	16.93940
7710	3.51176	3.72551	2.69807	15.97906	15.18286	14.26470	11.71185	9.28726	6.33033	12.03010	11.67910	10.82832	5.43526	4.74568	4.16829	22.88765	20.72248	16.89957
7880	3.46923	3.65687	2.59439	16.46430	15.43143	14.32422	11.64508	9.06802	6.16506	11.95770	11.58518	10.79927	5.39785	4.59392	4.02122	22.95441	20.01754	16.86522
8040	3.40679	3.55955	2.56330	16.09079	15.00425	14.18461	11.58408	9.00303	6.28191	11.81579	12.02491	10.86360	5.58054	4.84092	4.55523	22.80990	19.94656	16.98087
8200	3.40189	3.63831	2.65279	16.28468	15.32112	14.44365	11.72842	9.04963	6.17552	12.15982	11.70365	10.98361	5.39604	4.65557	4.03573	23.25155	20.43858	17.27204	25.45	6.2	0.00	7.34	0.01274	0.01290	0.01670	0.00772	0.00575	0.00630	0.00468	0.01266	0.01687	0.00671	0.00682	0.00885	0.01491	0.01097	0.01198	0.00216	0.00612	0.00860
8370	3.45180	3.70431	2.61399	16.46969	15.30642	14.81895	11.73478	9.16083	6.16743	12.35767	11.95047	11.00563	5.56648	4.78552	4.33665	23.61627	20.45750	17.44875
8530	3.75060	3.73653	2.68069	16.34549	15.52598	14.95005	11.67353	9.14686	6.31315	12.56504	11.83889	10.80535	5.50415	4.71436	4.28690	23.19810	20.41959	17.25629
8690	3.50321	3.80602	2.71092	16.31440	15.49282	14.56628	11.76228	9.34403	6.49452	12.37725	11.78728	10.87597	5.46707	4.69297	4.23405	23.42224	20.14326	17.43799
8860	3.51059	3.84652	2.82712	16.10011	15.46799	14.46042	11.74122	9.20818	6.58239	12.32696	11.81429	10.91075	5.48115	4.81993	4.18771	23.28708	20.68108	17.33973
9020	3.50247	3.68988	2.62005	16.31003	15.65378	14.73149	11.91382	9.38458	6.30273	12.29607	11.86451	10.75689	5.43238	4.64895	4.22049	23.33400	20.41294	17.15064
9190	3.45065	3.68968	2.63412	16.25821	15.64470	14.60808	11.70920	9.11255	6.15529	12.24783	11.67690	10.73210	5.39153	4.72500	4.17250	23.28940	19.91984	16.87366
9350	3.42915	3.66534	2.61687	16.21920	15.10359	14.07461	11.66044	8.98453	6.13105	11.89947	11.73945	10.85688	5.40396	4.59850	3.98793	22.89966	20.09509	16.72378
9510	3.47057	3.81653	2.57601	15.79716	14.79597	14.07104	11.51621	9.01240	6.05496	11.54884	11.48553	10.46953	5.29940	4.51638	3.89869	22.34760	20.05892	16.62573
9680	3.36930	3.54494	2.53007	15.63303	14.91790	14.14883	11.56115	8.95451	6.03868	11.77657	11.28165	10.33138	5.34874	4.50732	4.02450	22.69520	19.76423	16.94037
9840	3.33175	3.61751	2.57239	15.70339	14.57267	13.91525	11.66062	9.09867	6.37943	11.60720	11.25956	10.31694	5.26032	4.51959	4.08826	22.64091	19.91273	16.65258	25.45	6.1	0.00	7.33	0.01274	0.01290	0.01670	0.00772	0.00575	0.00631	0.00468	0.01266	0.01687	0.00671	0.00682	0.00885	0.01491	0.01097	0.01198	0.00216	0.00612	0.00860
10010	3.29219	3.62266	2.64926	16.02103	14.66225	13.81749	11.54555	8.90195	6.17973	11.73193	11.20754	10.25919	5.26082	4.48191	4.00335	22.51727	19.41321	16.60740
10170	3.43441	3.62403	2.60793	15.48466	14.65379	13.72647	11.80405	9.07421	6.12456	11.42665	11.22191	10.39949	5.46612	4.50408	4.12476	22.68708	19.87138	16.51268
10340	3.47011	3.54116	2.57549	15.71875	14.75330	14.09421	11.43374	9.01480	6.10706	11.73821	11.47154	10.30941	5.43385	4.50787	4.04972	22.36934	19.25605	16.35515
10500	3.32875	3.55222	2.53281	15.20918	14.58343	13.73848	11.44567	8.80630	5.97287	11.28898	11.13483	10.14385	5.17583	4.64838	4.05241	22.06822	19.26557	16.31373
10660	3.28136	3.55901	2.50973	15.20496	14.40388	13.70413	11.41917	8.93915	6.08450	11.42230	11.17334	10.32287	5.16267	4.45027	3.92329	21.87755	19.22439	16.32664
10830	3.16742	3.41769	2.41278	14.95345	14.31037	13.39603	11.37587	8.83940	5.80850	11.11194	11.00756	9.98632	5.09055	4.42201	3.85322	21.97616	19.22439	16.15518
10990	3.20198	3.46947	2.50948	15.07789	14.20807	13.70342	11.47513	9.01685	6.11038	11.47561	11.10920	10.35088	5.12202	4.56646	3.92871	22.26120	19.46930	16.31096
11150	3.30838	3.45585	2.55231	15.16605	14.14558	13.41057	11.38887	8.87801	5.85668	11.12182	11.01982	9.77582	5.08190	4.32599	3.89048	21.92775	18.88176	16.04099
11320	3.21278	3.36751	2.52656	15.06743	14.33067	13.51184	11.38952	8.60822	5.77293	11.18153	10.85586	9.72786	5.09398	4.49069	3.91452	22.38523	19.33812	16.07709
11480	3.25561	3.47447	2.44158	15.11074	14.10171	13.26077	11.50219	8.82564	5.91531	11.22371	10.81114	9.93955	5.08785	4.43988	4.01412	21.69518	18.91039	15.83902	25.39	6.1	0.00	7.32	0.01274	0.01290	0.01670	0.00772	0.00575	0.00631	0.00468	0.01266	0.01687	0.00671	0.00682	0.00885	0.01491	0.01097	0.01198	0.00216	0.00612	0.00860
11650	3.22721	3.34901	2.38207	15.05092	14.26850	13.40774	11.32242	8.64448	5.83576	11.15534	10.68740	10.06381	5.19806	4.55589	4.10225	22.08241	19.30996	16.13062
11810	3.22309	3.51044	2.61525	15.15844	14.14838	13.34705	11.45774	8.93528	5.91183	11.06953	10.79666	9.96561	5.17014	4.38713	3.91699	21.90898	19.02890	16.09646
11970	3.20039	3.35063	2.45361	15.05128	14.15448	13.51346	11.32008	8.67180	5.95348	11.02920	10.69534	9.98899	5.11782	4.48877	3.95412	21.70311	18.95839	15.96540
12140	3.35559	3.49953	2.49510	14.87340	14.35560	13.57030	11.30461	8.82179	5.84641	11.43323	10.95708	10.00748	4.99998	4.41358	3.85871	21.80134	19.21417	16.05890
12300	3.19796	3.49044	2.53637	15.40972	14.34831	13.34340	11.55251	8.88784	6.04400	11.30420	10.96328	10.05904	5.17336	4.55850	4.01981	22.21050	19.18364	16.69748
12460	3.31209	3.54131	2.54938	15.52573	14.55306	14.29562	11.45781	8.91334	6.10611	11.62466	11.18367	10.07674	5.21908	4.50720	3.88743	22.41869	19.21775	16.23427
12630	3.25929	3.53982	2.61506	15.16786	14.50027	13.70176	11.49091	8.72759	6.08327	11.70817	11.20278	10.15740	5.15041	4.79140	4.06816	22.00587	19.41690	16.62665
12790	3.36929	3.63439	2.88032	15.07070	14.43634	13.76142	11.68149	8.98957	6.03408	11.27401	11.26860	10.12365	5.17402	4.44950	3.98587	22.22023	19.04120	16.16704
12950	3.28014	3.48892	2.52852	15.34599	14.62605	13.73887	11.43156	9.00448	5.91977	11.43388	10.94924	10.00758	5.03563	4.38239	3.83699	22.18482	19.46786	16.18902
13120	3.24970	3.61317	2.50283	15.30709	14.41142	13.52355	11.49881	8.91025	6.06618	11.53221	10.97146	10.24976	5.31070	4.43122	3.89632	22.05162	19.42833	16.17482	25.45	6.2	0.00	6.46	0.01274	0.01290	0.01670	0.00772	0.00575	0.00631	0.00468	0.01266	0.01687	0.00671	0.00682	0.00885	0.01491	0.01097	0.01198	0.00216	0.00612	0.00860
13280	3.21882	3.38319	2.44192	15.27120	14.28246	13.60783	11.28590	8.72124	5.84485	11.42247	10.96932	9.93900	5.06699	4.41056	3.82675	21.96477	19.21936	16.24449
13450	3.21775	3.40175	2.46111	15.57356	14.56591	13.49684	11.34974	8.75080	5.92799	11.18291	10.98013	10.36874	5.30256	4.53247	3.96014	22.24261	19.51201	16.48813
13610	3.35101	3.57306	2.48710	15.22334	14.59954	14.07496	11.35779	8.83684	5.97538	11.36959	11.33785	10.21092	5.13032	4.50616	3.99448	22.09551	19.26169	16.23591
13770	3.33816	3.54590	2.54173	15.80058	14.52818	13.93260	11.58449	9.10267	5.94931	11.42679	11.06645	10.03329	5.29286	4.53167	4.09393	22.24505	19.13648	16.39165
13940	3.27332	3.51020	2.51041	15.62065	15.07195	13.83459	11.51277	8.84863	6.01049	11.59287	11.03676	10.23141	5.27501	4.61047	4.11876	22.30171	20.10261	16.51041
14100	3.40297	3.57541	2.50788	15.52437	14.50834	13.70923	11.39401	8.89208	5.92730	11.52559	11.03358	10.29539	5.09677	4.46298	3.88624	22.04820	19.43893	16.33270
14270	3.30698	3.60532	2.56817	15.28235	14.52197	13.79253	11.49505	8.91237	6.18129	11.35560	10.89830	10.29196	5.22801	4.43847	3.87011	22.12303	19.46605	16.23362
14430	3.24482	3.52155	2.49967	15.28420	14.48567	13.71815	11.45041	8.90756	6.10419	11.31471	10.82528	9.96900	5.14673	4.53526	3.91343	22.09413	19.19817	16.23000
14600	3.32051	3.55432	2.58438	15.45987	14.34349	13.39890	11.72492	8.93191	5.98834	11.42899	11.09996	10.30520	5.24697	4.46073	3.93819	23.13023	19.45605	16.35487
14760	3.33130	3.52995	2.54958	15.31758	14.69638	13.76359	11.44764	9.02105	6.01627	11.54995	11.53401	10.50413	5.30745	4.50530	4.03937	22.43774	19.54649	16.49784	25.51	6.2	0.00	7.32	0.01274	0.01290	0.01670	0.00772	0.00575	0.00631	0.00468	0.01266	0.01687	0.00671	0.00682	0.00885	0.01491	0.01097	0.01198	0.00216	0.00612	0.00860
14930	3.35328	3.62781	2.60342	15.67994	14.74769	13.90675	11.44052	8.94037	6.08432	11.66727	11.26512	10.25936	5.20325	4.54558	4.11263	22.31195	19.68916	16.74666
15090	3.37120	3.60127	2.60983	15.77132	14.74486	14.04346	11.63060	9.11351	6.17785	11.57726	11.24452	10.37377	5.32161	4.56685	4.15402	22.73509	19.62400	16.56175
15260	3.71060	3.61471	2.58303	15.52802	14.77846	13.93606	11.74519	9.07407	6.04434	11.61051	11.34879	10.30669	5.19399	4.52686	4.00160	22.35065	19.60733	16.68290
15420	3.30627	3.59212	2.58346	15.54520	14.71437	13.89996	11.47935	8.94855	6.05354	11.45098	11.11930	10.42936	5.19772	4.43594	3.95589	22.29967	19.79581	16.53284
15580	3.30286	3.51810	2.44937	15.54630	15.11863	13.91076	11.47567	8.99237	6.14981	11.65783	11.38074	10.66069	5.40724	4.58766	4.12900	22.86412	19.81242	16.74831
15750	3.32678	3.57485	2.59654	15.76268	14.87206	14.06434	11.58367	8.97688	6.08210	11.92351	11.65592	10.61491	5.38569	4.56469	4.02675	22.74939	19.76685	16.86843
15910	3.33906	3.57997	2.59830	15.90158	14.99184	14.14542	11.71640	9.07577	6.31968	12.11966	11.48903	10.88374	5.45979	4.72589	4.17463	22.76811	20.13099	17.00694
16080	3.40234	3.61099	2.56832	16.10244	15.37401	14.19343	11.56102	9.06979	6.04103	11.85359	11.54051	10.59999	5.33884	4.61071	4.04222	22.71058	20.10427	17.15012
16240	3.47622	3.82928	2.66621	16.22958	15.37438	14.67872	11.69677	9.27846	6.35807	12.28561	11.87765	10.98329	5.58399	4.95564	4.40077	23.35110	20.49782	17.67249
16410	3.81926	4.04948	2.96013	16.93938	15.79520	14.79087	12.04368	9.35489	6.47036	12.74542	12.34445	11.41442	5.81871	5.13380	4.45648	23.58832	20.81210	17.72784	25.45	6.2	0.00	7.37	0.01274	0.01290	0.01670	0.00772	0.00575	0.00631	0.00468	0.01266	0.01687	0.00671	0.00682	0.00885	0.01491	0.01097	0.01198	0.00216	0.00612	0.00860
16570	3.75273	3.98231	2.89325	16.83900	15.91895	15.12029	11.96269	9.44350	6.41953	12.58355	11.97637	11.16089	5.58058	4.98106	4.40710	23.15700	20.59865	17.74830
16730	3.71519	3.99620	2.81719	16.13005	15.55155	14.74486	11.69284	9.13185	6.22883	12.21978	11.81650	10.69529	5.35255	4.65531	4.12163	23.27382	19.95282	17.10348
16900	3.47297	3.72234	2.78409	16.08195	15.17442	14.27314	11.68606	9.00469	6.12915	12.12153	11.64601	10.57570	5.32643	4.70945	4.10986	23.12725	19.99441	16.82597
17060	3.53401	3.77552	2.64052	15.86798	14.93268	14.02095	11.67818	8.87987	6.18158	11.97341	11.59093	10.52830	5.39576	4.70605	4.14909	22.59689	19.93310	16.59097
17230	3.47463	3.66189	2.64341	15.76395	15.06770	14.13537	11.41323	8.92847	6.12790	11.91662	11.33404	10.47769	5.24760	4.56813	4.03492	22.34718	19.67815	16.50532
17390	3.35734	3.55056	2.54628	15.69986	14.88424	13.94248	11.40226	9.03982	6.04970	11.48730	11.66502	10.65556	5.31809	4.55698	4.06742	22.29132	19.76896	16.61353
17550	3.40813	3.58130	2.60315	15.54581	14.64810	13.72902	11.40606	8.87488	5.91739	11.79104	11.28589	10.35219	5.36742	4.49144	3.96085	22.39450	19.44517	16.46915
17720	3.23824	3.51502	2.61148	15.63253	14.71551	13.76629	11.44403	9.00482	6.03484	11.76477	11.41625	10.49458	5.50577	4.65068	3.97544	22.35599	19.79926	16.90506
17880	3.31400	3.63726	2.53286	15.47210	14.67190	13.81908	11.49168	8.83904	6.08434	11.62419	11.20248	10.27278	5.28212	4.60413	4.01702	22.51594	20.00069	16.54205
18050	3.42779	3.54234	2.59160	15.61767	14.77320	13.85751	11.51740	9.09485	6.00496	11.89149	11.40844	10.50360	5.37076	4.53749	4.03844	22.50388	19.57803	16.53198	25.51	6.1	0.00	7.16	0.01274	0.01290	0.01670	0.00772	0.00575	0.00631	0.00468	0.01266	0.01687	0.00671	0.00682	0.00885	0.01491	0.01097	0.01198	0.00216	0.00612	0.00860
18210	3.44639	3.74597	2.68610	15.76899	14.91405	13.80190	11.69428	9.10764	6.18230	11.80781	11.44257	10.38383	5.31373	4.62510	4.08880	22.66913	19.76493	16.92099
18380	3.37944	3.52510	2.57058	15.75413	15.01915	13.86719	11.57035	8.98945	6.40157	11.66999	11.51896	10.61147	5.46394	4.80358	4.10661	22.35118	19.96956	16.50532
18540	3.49428	3.59993	2.64469	15.89971	14.86771	13.97031	11.50277	8.95328	6.14236	11.79495	11.28472	10.35019	5.35754	4.40529	4.02972	22.66149	19.66300	16.64417
18700	3.57949	3.66315	2.73795	15.67854	14.95916	13.90825	11.61671	8.89327	6.04360	11.55916	11.14783	10.49377	5.29266	4.65168	4.25668	22.38719	19.51017	16.30393
18870	3.35438	3.49216	2.54746	15.60265	14.86188	14.02553	11.56104	8.83137	6.17102	11.80722	11.34155	10.67420	5.13151	4.51023	3.93783	22.44038	19.27875	16.40998
19030	3.32810	3.49805	2.63475	15.52487	14.39987	13.61514	11.58676	8.88818	6.10451	11.76443	11.41526	10.12721	5.27237	4.55969	3.91142	22.39249	19.71684	16.74965
19200	3.35397	3.55580	2.57543	15.74395	14.79086	13.98044	11.51566	8.93129	6.03129	11.60291	11.23912	10.37039	5.32645	4.50509	4.01968	22.49350	19.51073	16.59640
19360	3.39159	3.54327	2.61613	15.46144	14.42400	13.98719	11.62616	9.01482	6.06271	11.57867	11.23332	10.40947	5.22058	4.49560	3.96493	22.16542	19.54821	16.48805
19520	3.21844	3.57467	2.55018	15.70419	14.70973	14.00602	11.56286	8.99474	6.07152	11.83591	11.43614	10.46303	5.40032	4.72769	4.16595	22.73922	20.03907	16.90578
19690	3.72575	3.72256	2.77997	15.98250	15.07221	14.15854	11.70147	9.16862	6.37133	12.27847	11.95618	10.89066	5.59416	5.11383	4.37157	23.16475	20.03655	17.12853	25.51	5.9	0.00	6.48	0.01274	0.01290	0.01670	0.00772	0.00575	0.00631	0.00468	0.01266	0.01687	0.00671	0.00682	0.00885	0.01491	0.01097	0.01198	0.00216	0.00612	0.00860
19850	3.76180	4.02869	2.93134	16.32127	15.39702	14.51852	11.78678	9.22429	6.41051	12.11756	11.83444	11.01404	5.53990	4.82291	4.30822	23.07952	20.37078	17.29821
20010	3.63920	3.81035	2.84055	16.60768	15.37456	14.82455	11.81689	9.16940	6.28612	12.07612	11.83107	10.88508	5.47231	4.78869	4.13694	22.77171	20.17392	17.10649
20180	3.44934	3.62688	2.72377	16.19256	15.03525	14.19006	11.62332	8.97430	6.25018	11.94925	11.69148	10.74147	5.39195	4.74005	4.03985	22.63305	20.02025	16.84702
20340	3.49169	3.64988	2.62567	15.92199	15.62953	14.77823	11.95053	9.05180	6.14123	11.97285	11.53894	10.60122	5.48906	4.56888	3.99788	22.48951	19.93539	16.96779
20510	3.36917	3.58892	2.53470	15.82224	14.91505	13.96921	11.60036	8.98866	6.07882	11.88815	11.40477	10.56224	5.26709	4.67338	4.07389	22.39176	19.81147	16.64904
20670	3.36648	3.51610	2.56524	15.46919	14.72139	13.99569	11.53322	9.07124	6.19575	11.70447	11.33928	10.48361	5.23272	4.49762	4.00296	22.57633	19.59377	16.66516
20840	3.33458	3.67250	2.62575	15.45364	14.69407	13.77837	11.58029	8.88711	6.00784	11.61676	11.51459	10.49358	5.20822	4.46195	3.97334	22.55833	19.48833	16.41732
21000	3.21340	3.38908	2.51317	15.73678	14.87026	13.94240	11.63688	8.96917	6.01245	11.87440	11.38326	10.58245	5.27939	4.64058	4.14758	22.51490	19.66164	16.65741
21160	3.34124	3.53293	2.57845	15.69247	14.82602	13.92799	11.53888	8.98427	6.01735	11.69844	11.50951	10.59902	5.25278	4.63202	3.96801	22.41655	19.56455	16.75771
21330	3.47578	3.59338	2.70076	15.65025	14.82387	14.11047	11.57693	8.86615	5.99409	11.76727	11.46571	10.41134	5.28320	4.60513	3.97234	22.54451	19.72286	16.85433	25.51	6.1	0.00	6.45	0.01274	0.01290	0.01670	0.00772	0.00575	0.00631	0.00468	0.01266	0.01687	0.00671	0.00682	0.00885	0.01491	0.01097	0.01198	0.00216	0.00612	0.00860
21490	3.35434	3.58342	2.54126	15.68941	14.71317	14.05107	11.58692	9.17756	6.06157	11.49597	11.26465	10.28820	5.36917	4.67262	4.01201	22.33221	19.51127	16.44265
21660	3.28464	3.54003	2.51692	15.61349	14.73002	13.90650	11.41342	8.92205	6.05058	11.43209	11.23599	10.21282	5.23111	4.53736	4.05054	22.37488	19.57488	16.54616
21820	3.44002	3.58994	2.57411	15.50435	14.88801	13.69938	11.53504	8.86558	6.02997	11.75469	11.20575	10.35561	5.17836	4.51517	3.96628	22.58268	19.60488	16.43399
21980	3.29351	3.50520	2.53857	15.62105	14.53579	13.84815	11.46799	8.83622	5.95962	11.70169	11.13025	10.28946	5.19879	4.57065	4.01450	22.21469	19.93806	16.82238
22150	3.27790	3.53458	2.47647	15.49697	14.79290	13.79544	11.65177	8.86774	5.86808	11.63259	11.32990	10.30411	5.40714	4.50172	4.01075	22.47039	19.45339	16.65740
22310	3.44978	3.60531	2.51698	15.56810	14.86786	13.89098	11.38885	8.89542	5.91639	11.51808	11.35498	10.44548	5.23803	4.52009	3.94351	22.63839	19.72079	16.56648
22470	3.29783	3.46844	2.55675	15.59973	14.79834	13.75514	11.44264	8.93022	6.04249	11.79014	11.21221	10.06713	5.23978	4.47140	3.94732	22.37276	19.43874	16.54063
22640	3.34379	3.50310	2.65089	15.61813	14.76456	13.84703	11.44739	8.86460	5.98196	11.70635	11.26910	10.15854	5.14753	4.44957	4.01732	22.26524	19.52197	16.49613
22800	3.30606	3.51275	2.58952	15.70297	14.99199	14.14288	11.47260	8.96857	6.00382	11.74401	11.27426	10.09734	5.18338	4.56368	4.02875	22.16162	19.69439	16.49288
22970	3.29656	3.54830	2.63918	15.88470	14.96282	14.02017	11.48659	8.98708	6.20172	11.61377	11.08157	10.80230	5.27977	4.60869	3.99362	22.13916	19.37055	16.41490	25.51	6.0	0.00	7.28	0.01274	0.01290	0.01670	0.00772	0.00575	0.00631	0.00468	0.01266	0.01687	0.00671	0.00682	0.00885	0.01491	0.01097	0.01198	0.00216	0.00612	0.00860
23130	3.41868	3.52818	2.55911	15.44804	14.59638	13.79561	11.39650	8.81344	5.92425	11.32826	11.16097	10.29571	5.09020	4.43815	3.88187	21.99453	19.29371	16.24947
23290	3.28856	3.42142	2.51597	15.64031	14.80624	13.86932	11.57290	8.82152	6.00372	11.52534	11.16004	10.30658	5.24284	4.60883	4.05728	22.67270	19.61270	16.51184
23460	3.42926	3.54374	2.46580	15.44776	14.52089	13.76276	11.36584	9.03522	6.06355	11.72163	11.17968	10.50721	5.26139	4.55689	4.04675	22.27751	19.45257	16.46902
23620	3.37389	3.61922	2.57361	15.45181	14.34527	13.64732	11.62059	8.89385	6.07928	11.78219	11.26369	10.26562	5.34182	4.51991	3.95088	22.32453	19.65412	16.28582
23790	3.33502	3.56026	2.52888	15.24390	14.81205	13.86304	11.54802	8.99460	6.11208	11.66712	11.16076	10.17088	5.29045	4.62238	4.09019	22.75864	19.66974	16.62994
23950	3.28216	3.54647	2.54558	15.43957	14.53517	13.65965	11.53335	8.80124	6.10449	11.51945	11.26680	10.48822	5.19310	4.57655	4.00870	22.50945	19.57081	16.49667
24120	3.37455	3.51303	2.46167	15.41286	14.44208	13.68060	11.43710	8.82383	6.05507	11.34336	10.95696	10.33182	5.15955	4.57214	3.95704	22.01258	19.24675	16.24396
24280	3.34104	3.45130	2.44011	15.34594	14.43506	13.57328	11.40194	8.81780	5.89460	11.63596	11.12374	10.02980	5.04455	4.45130	3.89219	22.32523	19.61559	16.53029
24440	3.27695	3.64592	2.49263	15.43699	14.47296	14.02007	11.48493	8.83954	6.10693	11.40601	11.09288	9.91670	5.20929	4.59694	3.91813	22.27646	19.77118	16.41471
24610	3.31970	3.58846	2.53394	15.84992	14.49697	13.67950	11.37770	8.92543	6.09663	11.71391	11.01697	10.26322	5.20586	4.55392	3.93425	22.54874	20.04103	16.61807	25.45	6.1	0.00	7.17	0.01274	0.01290	0.01670	0.00772	0.00575	0.00631	0.00468	0.01266	0.01687	0.00671	0.00682	0.00885	0.01491	0.01097	0.01198	0.00216	0.00612	0.00860
24770	3.29031	3.51848	2.48451	15.42519	14.63304	13.94815	11.47988	8.87383	5.97895	11.41775	11.17379	10.48621	5.25216	4.45905	4.04464	22.36174	19.53640	16.49589
24940	3.39119	3.55749	2.55786	15.34440	14.62518	13.64622	11.48977	8.84022	5.91138	11.54427	11.16107	10.15320	5.25546	4.42944	3.91701	22.45605	19.64701	16.28307
25100	3.39553	3.65667	2.60941	15.25350	14.56708	13.62905	11.39958	8.91603	5.96729	11.70043	11.20680	10.07577	5.19988	4.52129	4.27466	22.09365	19.17870	16.21039
25260	3.33895	3.52329	2.54826	15.62821	14.50375	13.76801	11.67947	8.94866	5.96428	11.82177	11.08029	10.11573	5.04990	4.58124	3.90250	22.34094	19.41869	16.23448
25430	3.28317	3.64078	2.53626	15.15985	14.44338	13.74895	11.54337	8.95889	6.08842	11.27562	11.09660	10.04033	5.14662	4.44319	3.90220	22.20419	19.32882	16.47285
25590	3.32387	3.48523	2.48872	15.18677	14.67777	13.57242	11.53902	9.02764	6.02318	12.09917	11.44949	10.49955	5.25359	4.65590	4.01416	23.08265	19.40173	16.65047
25750	3.30280	3.65144	2.47226	15.65474	14.51547	13.69910	11.66468	8.88636	6.01932	11.68431	11.37767	10.52325	5.29613	4.64225	4.02135	22.57034	19.71411	16.94167
25920	3.49976	3.61408	2.68159	16.32949	15.46390	14.79342	11.64815	9.23949	6.28730	12.25903	12.02460	11.09315	5.53653	4.93658	4.45563	23.22050	20.29315	17.53384
26080	3.60794	3.80891	2.98703	16.28714	15.34365	14.69488	11.78814	9.30418	6.66217	12.52173	12.09374	10.87010	5.98087	4.90907	4.42112	23.39740	20.16457	17.24207
26250	3.56081	3.72306	2.76972	16.17303	15.23299	14.39297	11.70907	9.19890	6.24334	12.37486	11.89166	10.79007	5.40786	4.83967	4.08451	22.91741	19.83696	16.80742	25.51	6.2	0.00	7.32	0.01274	0.01290	0.01670	0.00772	0.00575	0.00631	0.00468	0.01266	0.01687	0.00671	0.00682	0.00885	0.01491	0.01097	0.01198	0.00216	0.00612	0.00860
26410	3.47390	3.68377	2.76761	15.84785	15.01149	14.04324	11.71180	9.02619	6.23243	11.91090	11.24282	10.50176	5.29351	4.59857	3.97711	22.75646	19.71256	16.63228
26570	3.34751	3.61553	2.61854	15.72293	14.89839	14.18666	11.56224	8.99308	6.11283	11.70361	11.26973	10.50092	5.35729	4.55546	3.97718	22.62229	19.97565	16.59294
26740	3.42839	3.85266	2.73616	15.69892	14.73476	13.89467	11.76803	9.15734	6.09353	11.94125	11.52281	10.55466	5.30768	4.59412	4.03714	22.60384	19.69659	16.74164
26900	3.40869	3.63578	2.56368	15.84231	14.69709	13.92179	11.56944	8.88544	6.09160	11.56389	11.13974	10.39660	5.20119	4.60564	4.06287	22.17713	19.53977	16.73811
27070	3.37998	3.57395	2.63217	15.49757	14.54200	14.02735	11.55016	8.94039	6.05058	11.70331	11.06676	10.35785	5.25462	4.49796	3.99266	22.54796	19.53173	16.67254
27230	3.40990	3.53631	2.55045	15.96567	14.81686	13.56525	11.43900	8.94311	6.29895	11.49626	11.14958	10.30327	5.34062	4.55255	4.06900	22.41903	19.63083	16.47024
27390	3.43439	3.70770	2.56933	15.60892	14.93899	14.16779	11.74021	8.96965	6.06282	11.84310	11.28379	10.32902	5.27518	4.55503	4.03553	22.70155	19.76648	16.63758
27560	3.38059	3.66785	2.67078	15.84158	14.87440	14.04463	11.55075	9.00236	6.36098	11.80186	11.51989	10.60926	5.30717	4.68529	4.08547	22.96489	19.92713	16.79281
27720	3.56718	3.75348	2.66959	16.09638	15.21275	14.28923	11.72733	9.11088	6.22010	11.86504	11.63084	10.73477	5.33203	4.52795	4.11083	22.81499	20.15297	16.67935
27890	3.50865	3.67266	2.60887	16.12018	15.00758	14.32530	11.53328	9.08403	6.17425	12.02329	11.58305	10.50474	5.49139	4.64067	4.13959	22.73639	20.27492	17.02218	25.51	6.0	0.00	7.32	0.01274	0.01290	0.01670	0.00772	0.00575	0.00630	0.00468	0.01266	0.01687	0.00671	0.00682	0.00885	0.01491	0.01097	0.01198	0.00216	0.00612	0.00860
28050	3.43106	3.68058	2.68067	15.93905	14.87338	13.99820	11.64917	9.12761	6.22257	11.91124	11.34183	10.54003	5.53402	4.72470	4.14814	22.77308	19.84689	16.81785
28210	3.41857	3.57152	2.60038	15.76026	15.28647	14.22053	11.50813	9.02192	6.09652	12.14939	11.44122	10.60253	5.26065	4.59574	4.07235	22.47612	19.76586	16.63097
28380	3.39455	3.65219	2.57133	15.62171	15.00583	14.14004	11.59609	8.91235	6.11115	11.88014	11.58391	10.37133	5.28236	4.53192	4.01727	22.68379	19.89416	16.76500
28540	3.37823	3.60683	2.89115	15.82734	14.89666	14.21922	11.63179	9.13797	6.29311	11.89432	11.59148	10.46392	5.51923	4.68305	4.19712	22.82763	19.73981	16.77506
28700	3.54760	3.69886	2.74762	15.70754	14.77786	13.93411	11.72877	9.15431	6.09949	11.69519	11.29689	10.43699	5.38037	4.59754	3.96491	22.57041	19.83804	16.74239
28870	3.35509	3.64477	2.56212	15.88237	14.99985	14.55568	11.46178	9.00585	6.28620	12.06781	11.70395	10.63867	5.30068	4.59996	4.28314	23.16554	20.14177	17.06350
29030	3.51942	3.73378	2.69154	16.07779	15.24104	14.36374	11.74921	9.23606	6.25762	11.98884	11.86587	10.89661	5.42597	4.78723	4.17911	22.77271	20.15031	17.17382
29200	3.50748	3.74009	2.57883	16.03414	15.37986	14.28939	11.77846	9.24851	6.18991	12.08203	11.74387	10.72192	5.36042	4.70326	4.13499	22.91673	20.04986	17.10334
29360	3.62092	3.70034	2.70854	16.26040	15.53151	14.52538	11.89349	9.51108	6.30443	12.38165	11.99791	10.95839	5.69530	4.73251	4.33606	23.39406	20.69291	17.32417
29530	3.57627	3.79988	2.82590	16.54116	15.48304	14.66158	11.75276	9.63552	6.38220	12.24044	12.03449	11.17844	5.44936	4.78216	4.16227	23.53911	20.41158	17.50283	25.51	6.2	0.00	7.37	0.01274	0.01290	0.01670	0.00772	0.00575	0.00631	0.00468	0.01266	0.01687	0.00671	0.00682	0.00885	0.01491	0.01097	0.01198	0.00216	0.00612	0.00860
29690	3.52913	3.70475	2.71986	16.29318	15.65077	14.75990	11.77221	9.13191	6.41262	12.41671	11.93391	10.94989	5.59919	4.67152	4.18886	23.19782	20.32376	17.43631
29850	3.81584	3.88877	2.79190	16.73807	15.65290	14.58757	11.84179	9.32522	6.30023	12.29843	12.07936	11.02070	5.59547	4.86958	4.36626	23.65645	20.56946	17.43765
30020	3.64427	3.86142	2.69191	16.68261	15.87546	15.08368	11.98987	9.75660	6.39532	12.55375	12.14417	10.87383	5.68225	4.85731	4.42495	23.42706	20.96799	17.98177
30180	3.73493	3.97311	2.82578	16.80860	15.70388	14.88254	12.22948	9.51943	6.50597	12.86168	12.42755	11.33071	5.73894	4.82614	4.45907	23.46795	20.84081	18.03724
30340	3.74559	3.98130	2.90309	16.45847	15.81875	15.03166	12.06589	9.46779	6.45585	12.49110	12.40502	11.63427	5.61964	4.79380	4.22664	24.04823	20.64780	17.69234
30510	3.71174	3.86883	2.78282	16.76326	15.88562	14.97295	11.87005	9.34327	6.47529	12.42956	12.25144	11.21292	5.67833	4.98705	4.19892	23.65324	21.50128	17.62239
30670	3.71208	3.90911	2.79412	16.81291	15.80840	14.80710	11.86427	9.26233	6.33715	12.62682	12.10035	11.16136	5.50903	4.81852	4.23230	23.28216	20.48442	17.51439
30840	3.66968	3.99201	2.76393	16.55130	15.71983	15.18931	11.97378	9.44810	6.35467	12.76688	12.21977	11.08504	5.56237	4.77210	4.22145	23.16490	20.35518	17.12256
31000	3.53373	3.74166	2.64973	16.07531	15.37714	14.44623	11.94350	9.15403	6.31049	12.46054	11.76983	10.86300	5.48720	4.71671	4.14390	23.73505	20.79053	17.17306
31160	3.38314	3.74146	2.67159	16.34518	15.44408	14.81807	11.86615	9.32620	6.37527	12.41316	11.91161	10.96523	5.50527	4.85920	4.24643	23.30805	20.63235	17.39822	25.51	6.2	0.00	7.32	0.01274	0.01290	0.01670	0.00772	0.00575	0.00631	0.00468	0.01266	0.01687	0.00671	0.00682	0.00885	0.01491	0.01097	0.01198	0.00216	0.00612	0.00860
31330	3.57585	3.83459	2.87517	16.81913	16.25868	15.10644	12.19530	9.72907	6.78715	13.14230	12.60350	11.92791	5.81637	5.15650	4.64331	23.91976	20.89115	18.22319
31490	3.91209	4.19805	3.16344	17.24331	16.50306	15.53614	12.07477	9.61564	6.68400	13.33769	12.93916	12.28799	5.82045	5.08182	4.51351	24.65795	21.99961	19.28607
31660	3.91413	4.22161	3.05745	17.42409	16.61201	15.98393	12.07631	9.60285	6.67257	13.64524	12.90068	12.12937	6.09773	5.09293	4.52102	24.18081	21.47023	18.27717
31820	3.81499	4.13505	3.03465	17.28563	16.33354	15.50433	12.17811	9.61670	6.63095	13.16495	12.72522	11.78394	5.84497	5.04797	4.40716	24.58057	21.66201	18.20463
31980	3.92311	4.09592	2.96259	17.28648	16.73357	15.85771	12.15994	9.66928	6.75507	13.10671	12.60375	11.73295	6.04207	5.16086	4.42251	24.46453	21.57466	18.37656
32150	4.18536	4.02100	2.84639	17.03707	16.10825	15.55911	12.21649	9.63611	6.67816	13.04956	12.70581	11.48386	5.86124	4.99728	4.40621	24.16728	21.40890	18.10637
32310	3.75627	3.93111	2.77161	17.26507	16.36588	15.30574	11.89869	9.38053	6.47355	12.84356	12.44179	11.37391	5.75647	5.08064	4.29799	24.35025	21.09155	17.87033
32480	3.84309	4.14712	2.87488	17.08080	16.04088	15.08009	12.14534	9.29620	6.55214	12.42912	12.33812	11.18899	5.81830	5.14781	4.62219	23.51297	20.83136	17.76913
32640	3.61188	3.84661	2.78965	16.91102	15.75224	14.91320	11.87689	9.30403	6.38166	12.76275	12.47618	11.01020	5.48987	4.82538	4.21751	23.46795	21.14608	17.95690
32810	3.49044	3.82289	2.70287	16.48658	15.72084	14.90433	11.79233	9.16213	6.42234	12.59280	12.03698	10.83465	5.50408	4.78023	4.25961	23.09680	20.37402	17.53202	25.57	6.2	0.00	7.34	0.01274	0.01290	0.01670	0.00772	0.00575	0.00631	0.00468	0.01266	0.01687	0.00671	0.00682	0.00885	0.01491	0.01097	0.01198	0.00216	0.00612	0.00860
32970	3.54017	3.76236	2.67535	16.56587	15.61112	14.77299	11.82746	9.23294	6.27791	12.90001	12.01620	11.00286	5.50859	4.76517	4.10819	23.63787	20.58653	17.25267
33130	3.53937	3.67001	2.68453	16.33753	15.66331	14.70153	11.87427	9.17327	6.43003	12.34141	12.09509	11.02191	5.60560	4.75167	4.54958	23.29532	20.32703	17.31945
33300	3.69734	3.88739	2.69437	16.44237	15.55014	14.59287	11.94887	9.27956	6.22563	12.37771	11.98941	11.00888	5.57090	4.71583	4.25005	23.15426	20.35997	17.12203
33460	3.60549	3.86059	2.74701	16.32324	15.35186	14.68155	12.05166	9.44247	6.26129	12.45845	12.05010	10.82591	5.61932	4.97391	4.28905	23.53505	20.16868	17.25023
33630	3.54857	3.81780	2.70543	16.18879	15.67926	14.79064	11.71947	9.31367	6.30512	12.75162	11.83100	10.81573	5.57540	4.77004	4.37859	23.35627	20.68911	17.20551
33790	3.58034	3.69195	2.65538	16.38619	15.37428	14.62858	11.81655	9.16224	6.27925	12.04368	11.69653	10.77538	5.43098	4.77146	4.18089	23.35082	20.32174	17.07683
33950	3.51435	3.74453	2.64459	16.18828	15.47628	14.37869	11.53497	9.01617	6.21008	12.16323	11.95642	10.88087	5.40827	4.61872	4.12350	22.54824	20.10377	16.79799
34120	3.44043	3.64954	2.66156	15.93076	15.07017	14.21565	11.83621	9.06429	6.28115	12.09585	11.41318	10.64033	5.34737	4.64272	4.08550	22.86166	19.76514	17.17307
34280	3.42522	3.84387	2.78058	15.93486	15.03466	14.34361	12.04341	9.41028	6.31989	12.01461	11.58134	10.59240	5.54868	4.64903	4.11550	22.77934	20.05074	17.17307
34440	3.56973	3.64040	2.60611	16.31950	15.84401	14.36854	11.60711	9.05525	6.46638	12.46058	11.63089	10.88486	5.38660	4.74747	4.12280	23.00460	20.13765	16.99033	25.57	6.2	0.00	7.34	0.01274	0.01290	0.01670	0.00772	0.00575	0.00631	0.00468	0.01266	0.01687	0.00671	0.00682	0.00885	0.01491	0.01097	0.01198	0.00216	0.00612	0.00860
34610	3.49109	3.67103	2.63154	16.15815	15.11060	14.34192	11.76121	9.12569	6.27158	12.02516	11.49909	10.76860	5.32902	4.65431	4.10482	23.19866	20.63826	17.16359
34770	3.52043	3.63481	2.59899	16.02849	15.20511	14.81411	11.92292	9.45757	6.23215	12.37401	11.85924	10.84904	5.56534	4.96775	4.21206	23.03776	19.93571	17.01325
34930	3.69481	3.73269	2.73151	16.18030	15.17988	14.42545	11.88572	9.23104	6.31635	12.24794	12.13264	10.78205	5.54100	4.75243	4.13121	23.03851	21.10577	18.07077
35100	3.42732	3.60181	2.73074	16.20234	15.25769	14.53691	11.72586	9.10914	6.37056	12.70481	11.69780	10.77916	5.36192	4.74913	4.08225	23.02418	20.16141	17.01305
35260	3.54559	3.81274	2.63597	16.09506	15.53894	15.09310	11.68069	9.07514	6.37491	11.97329	11.79056	10.67398	5.43826	4.77238	4.02872	23.05853	20.54109	16.79807
35430	3.45345	3.73885	2.55678	16.13313	14.91787	14.20236	11.63390	9.11427	6.20204	12.05077	11.87416	10.45004	5.25159	4.55136	4.09495	22.86493	20.08288	17.06718
35590	3.40832	3.76923	2.64190	15.89768	15.05338	14.29457	11.74926	9.19328	6.40464	12.09276	11.49185	10.92840	5.42698	4.66331	4.05439	22.92668	20.31715	16.87032
35750	3.48575	3.73524	2.66275	15.77944	14.84865	14.20729	11.72734	9.13831	6.14831	11.86919	11.47885	10.84912	5.47987	4.60515	4.06099	22.81166	19.82779	16.78105
35920	3.48045	3.66612	2.60573	15.94706	15.01129	14.01417	11.73289	9.12292	6.23902	11.92040	11.48003	10.75363	5.42576	4.71211	4.09846	22.86159	20.12637	16.90827
36080	3.50731	3.82121	2.82051	16.13101	15.22192	14.37284	11.99272	9.25275	6.34917	12.38918	11.86362	10.80358	5.42745	4.72893	4.31451	23.31326	20.22128	17.92557	25.57	6.1	0.00	7.30	0.01274	0.01290	0.01670	0.00772	0.00575	0.00631	0.00468	0.01267	0.01687	0.00671	0.00682	0.00885	0.01491	0.01097	0.01198	0.00216	0.00612	0.00860
36250	3.60165	4.08894	2.83293	16.09361	15.35086	14.62357	11.86045	9.17966	6.38447	12.26320	11.88197	10.72001	5.50765	4.70626	4.25654	23.14783	20.08103	17.11351
36410	3.70679	3.74119	2.64617	16.11370	15.24063	14.25599	11.69696	9.11452	6.26291	12.15346	11.56428	10.54554	5.43837	4.74907	4.15481	22.79471	20.06008	16.76826
36570	3.51807	3.74370	2.66380	15.87649	15.17175	14.44631	11.91374	9.11793	6.16344	11.99629	11.74791	10.68247	5.44325	4.70295	4.10466	23.03892	20.10084	17.03093
36740	3.48602	3.64537	2.64227	16.00608	15.07623	14.24699	11.62232	9.15497	6.24219	12.03775	11.76009	10.63085	5.39439	4.69783	4.25754	22.75317	20.03092	16.76415
36900	3.57485	3.70132	2.66337	16.10440	15.13589	14.07876	11.72221	9.13215	6.23843	12.12380	11.52221	10.67153	5.33059	4.65019	4.06140	22.67608	20.04501	16.85260
37070	3.50187	3.69773	2.75538	16.41750	15.28916	14.22502	11.87455	9.25534	6.36659	11.83409	11.38572	10.77939	5.38863	4.76411	4.13718	23.13753	20.14953	16.87526
37230	3.47521	3.62976	2.70764	16.00309	15.22784	14.58072	11.71977	9.23544	6.27799	12.00022	11.54487	10.74688	5.46349	4.67380	4.04253	22.96709	20.07869	16.67227
37400	3.42072	3.68719	2.68210	16.09175	15.12311	14.34110	11.67302	9.46718	6.13457	11.96857	11.72035	10.65047	5.37025	4.97447	4.23317	23.20177	20.09137	16.78342
37560	3.59729	3.68920	2.66948	15.76045	15.07672	14.15555	11.66170	9.13337	6.20617	11.93426	11.55915	10.43766	5.37163	4.59848	4.03153	22.74401	20.06057	17.35121
37720	3.32859	3.55772	2.59825	15.98827	14.84465	14.15811	11.61442	9.13128	6.24003	11.59772	11.74342	10.82036	5.56163	4.62107	4.22198	22.56288	19.86890	17.15291	25.57	6.2	0.00	7.39	0.01274	0.01290	0.01669	0.00772	0.00575	0.00631	0.00468	0.01267	0.01687	0.00671	0.00682	0.00885	0.01491	0.01097	0.01198	0.00216	0.00612	0.00860
37890	3.41182	3.66241	2.64889	15.88546	15.16236	14.47252	11.58564	9.13471	6.53699	12.07739	11.43466	10.30313	5.44384	4.64961	4.07793	22.60399	19.83515	16.58692
38050	3.57235	3.68670	2.60878	15.99537	15.02436	14.06829	12.06191	9.29119	6.15156	11.92770	11.52712	10.44306	5.44392	4.74132	4.10081	22.60002	19.85726	16.94652
38210	3.52925	3.79454	2.73427	15.88605	15.05393	14.15997	11.90436	9.27963	6.28683	12.05114	12.02262	11.07438	5.52762	4.92840	4.37874	23.74057	20.89200	18.17204
38380	3.83488	4.19013	3.22214	17.11181	16.13412	15.46569	12.30988	9.90466	6.99740	13.82020	12.79667	11.61754	6.16073	5.48048	4.83061	24.61941	21.56376	18.97762
38540	4.20537	4.43598	3.40831	17.64788	16.66097	15.61642	12.50098	10.09716	6.92202	13.10603	12.88871	12.05650	6.06627	5.20893	4.55921	23.85336	21.03690	17.93136
38710	3.90796	4.21891	3.02790	16.95442	15.71980	15.08444	11.96107	9.64190	6.39391	12.72598	12.19413	11.25768	5.63830	4.91642	4.28242	23.44772	21.01107	17.34359
38870	3.63660	3.94584	2.90716	16.06614	15.27042	14.67880	12.01178	9.60345	6.37167	12.29188	11.97403	10.76800	5.43437	4.75602	4.19777	22.77677	19.75373	16.94948
39030	3.46559	3.80751	2.67910	15.87274	15.04568	14.07604	11.63126	9.23582	6.34793	12.17143	11.61716	10.68362	5.47961	4.70586	4.37264	23.17392	20.21161	17.01531
39200	3.87961	3.93728	2.67699	16.00074	15.19535	14.06536	11.86438	9.30017	6.31792	11.92365	11.94595	11.09946	5.45480	4.67828	4.12900	22.94697	20.22703	16.97389
39360	3.47156	3.75533	2.65825	16.18840	15.25069	14.63992	11.74439	9.08229	6.22879	12.12802	11.59648	10.94288	5.43276	4.63947	4.09822	22.88151	20.76919	17.32645	25.57	6.1	0.00	7.30	0.01274	0.01290	0.01669	0.00772	0.00575	0.00631	0.00468	0.01266	0.01687	0.00671	0.00682	0.00885	0.01491	0.01097	0.01198	0.00216	0.00612	0.00860
39530	3.50610	3.74751	2.77411	16.20732	15.29940	14.70754	11.75714	9.17962	6.29353	12.01528	11.75149	10.74337	5.37487	4.65959	4.08472	22.88895	20.19089	16.87931
39690	3.54789	3.74276	2.61880	15.77610	15.11194	14.16807	11.62381	9.02146	6.22386	11.91677	11.84471	10.51244	5.50925	4.78987	4.07841	23.14939	20.24419	16.67586
39860	3.47083	3.65242	2.56004	15.87523	14.89071	14.14979	11.58486	9.01512	6.12228	11.78616	11.72797	10.72731	5.49173	4.68398	4.15355	22.64673	19.78888	16.98065
40020	3.46218	3.47852	2.57720	15.65898	15.02289	14.02460	11.66122	8.85164	6.16591	11.74648	11.48237	10.52653	5.26094	4.55534	3.99408	22.38191	19.60981	16.73736
40180	3.58242	3.68533	2.71912	15.78578	15.10931	13.90424	11.60326	9.05990	6.21627	11.58399	11.21031	10.41830	5.21770	4.54252	3.99514	22.35049	19.76531	17.24325
40350	3.36307	3.59816	2.59993	16.18927	14.68936	14.11546	11.46135	9.13278	6.14645	11.75117	11.21520	10.19580	5.30269	4.72594	4.26054	22.34133	19.33273	16.41168
40510	3.46294	3.68519	2.63934	15.31732	14.43533	13.66114	11.51132	9.18766	6.16305	12.30817	11.61677	10.72935	5.29890	4.73143	4.11501	22.89602	20.05346	16.65555
40680	3.37138	3.75282	2.63836	16.04684	15.17176	14.39947	11.61049	9.09333	6.11383	11.92354	11.75483	10.50466	5.43265	4.71954	4.08238	23.06157	19.97015	16.77225
40840	3.38655	3.72311	2.72553	15.88703	14.99993	13.93524	11.63575	9.08181	6.32110	11.83518	11.51887	10.51616	5.43134	4.62270	4.05494	22.63838	19.95068	16.92545
41010	3.45882	3.81130	2.68000	15.93506	15.04131	14.22997	11.73881	9.79147	6.50118	11.87456	11.57528	10.46371	5.47716	4.76796	4.19289	22.97255	20.34461	16.95939	25.57	6.1	0.00	7.41	0.01274	0.01290	0.01669	0.00772	0.00575	0.00631	0.00468	0.01266	0.01687	0.00671	0.00682	0.00885	0.01491	0.01097	0.01198	0.00216	0.00612	0.00860
41170	3.52103	3.79014	2.82224	15.98478	15.24544	14.25655	11.74437	9.07275	6.16889	12.24968	11.77577	10.91728	5.45882	4.76405	4.11005	23.29494	20.25746	17.51900
41340	3.49847	3.72299	2.68305	16.05532	15.47806	14.56515	11.81002	9.25498	6.28383	12.22130	11.98916	10.69398	5.38517	4.73645	4.10052	22.71929	19.97768	16.92936
41500	3.40970	3.69434	2.67429	15.88053	15.10468	14.25341	11.74808	9.21182	6.21876	11.91289	11.52249	10.44089	5.45674	4.69571	4.05619	22.65842	19.97373	16.61475
41660	3.42513	3.81848	2.61533	15.81804	14.97291	14.80124	11.56022	9.03766	6.18131	11.79340	11.35313	10.62228	5.58757	4.69314	4.42105	22.75335	19.89615	16.81896
41830	3.69266	3.93193	3.00574	16.07589	14.87232	14.03467	11.74000	9.04650	6.26142	11.97843	11.59486	10.52574	5.50010	4.80873	4.14546	22.87255	20.43273	17.05427
41990	3.49360	3.91418	2.67459	16.19239	14.86898	14.21490	11.85615	9.25247	6.39588	12.12508	11.50347	10.71189	5.53873	4.91850	4.17773	22.98043	20.30583	16.92660
42150	3.54610	3.72376	2.67469	15.87228	15.14215	14.61117	11.72971	9.24151	6.26650	12.10787	11.68106	10.67495	5.31325	4.67517	4.15748	22.83513	20.03859	17.04382
42320	3.50558	3.60754	2.62511	16.76889	15.21104	14.34037	11.80972	9.08109	6.19444	11.78090	11.54345	10.66910	5.41038	4.62595	4.09024	22.60695	19.89022	16.81789
42480	3.60696	3.85265	2.68127	15.82039	15.00125	14.02680	11.57260	9.28098	6.29681	11.85616	11.55965	10.84503	5.47121	4.75362	4.15207	22.67988	20.17343	17.08848
42650	3.38338	3.69149	2.60469	15.88005	15.19093	14.14189	11.64015	9.10058	6.10057	12.33302	11.56588	10.95118	5.34042	4.77859	4.15038	23.34040	19.94080	16.80628	25.57	5.9	0.00	7.44	0.01274	0.01290	0.01669	0.00772	0.00575	0.00631	0.00468	0.01266	0.01687	0.00671	0.00682	0.00885	0.01491	0.01097	0.01198	0.00216	0.00612	0.00860
42810	3.38777	3.61834	2.69192	15.87116	15.10575	14.16528	11.62952	9.19575	6.26687	11.73260	11.45028	10.50592	5.35286	4.67129	4.11083	23.04300	19.96439	16.87040
42980	3.40838	3.74932	2.65297	15.69611	14.84717	14.28870	11.73127	9.07906	6.23193	11.78512	11.90877	11.13218	5.41329	4.64464	4.04917	22.96926	20.87345	16.85823
43140	3.40482	3.58907	2.60353	15.92974	15.07949	14.00530	11.68093	9.01476	6.11956	11.84351	11.97436	10.81879	5.38958	4.58558	4.02459	22.82967	19.70183	16.58270
43300	3.45391	3.68363	2.77177	16.10424	15.19986	14.28997	11.69965	9.23200	6.11303	12.40900	11.94391	10.66023	5.43601	4.84808	4.10201	22.65779	19.92523	16.93502
43470	3.51218	3.77881	2.78979	15.74911	15.15076	14.28342	11.58457	8.94817	6.11464	11.94785	11.64331	10.55714	5.29546	4.70135	4.03591	22.97001	19.97905	16.80662
43630	3.44298	3.97668	2.72781	15.60590	15.10441	14.11647	11.67379	9.19528	6.40386	11.77538	11.71025	10.56782	5.59633	4.79672	4.15043	22.65053	19.78385	16.79444
43790	3.41296	3.69439	2.66921	16.42829	15.29523	14.17757	11.98110	9.22529	6.18829	12.10960	11.67351	10.53937	5.53484	4.62002	4.12244	23.02677	20.05298	17.18551
43960	3.43221	3.71067	2.62516	15.88717	14.89790	14.22491	11.71375	9.03167	6.19094	11.68737	11.31438	10.59314	5.66175	4.63768	4.31202	22.86151	20.12736	17.00378
44120	3.53164	3.62342	2.59223	16.08211	15.07261	14.15511	11.67673	9.16174	6.23699	11.80989	11.37636	10.47914	5.37432	4.70263	4.14442	22.84521	19.82749	17.00725
44290	3.48633	3.81612	2.59778	16.09351	15.08351	14.41257	11.65940	9.20199	6.25040	12.23064	11.56652	10.36398	5.33283	4.68329	4.11932	22.72213	20.26806	17.43264	25.57	6.0	0.00	7.34	0.01274	0.01290	0.01669	0.00772	0.00575	0.00631	0.00468	0.01266	0.01687	0.00671	0.00682	0.00885	0.01491	0.01097	0.01198	0.00216	0.00612	0.00860
44450	3.56752	3.61584	2.55782	15.89153	14.82365	14.17137	11.79619	9.38122	6.19510	11.76215	11.35666	10.16238	5.41232	4.72060	4.14387	22.45086	19.80564	16.61163
44610	3.59576	3.73887	2.73518	15.92454	15.22403	14.23195	11.96717	9.18118	6.32953	12.22307	11.43280	10.84599	5.38652	4.59567	4.16445	22.85687	20.36010	17.21127
44780	3.38841	3.61209	2.63984	15.76424	15.76830	14.37743	11.70550	9.12630	6.19902	11.92629	11.42127	10.69100	5.45038	4.69730	4.09630	22.75877	20.27045	16.99717
44940	3.54541	3.72959	2.70142	15.95443	14.77382	14.16200	11.69672	9.03937	6.18352	11.75434	11.48040	10.58921	5.41458	4.67909	4.07024	22.83799	19.87008	16.96687
45100	3.50441	3.68425	2.68491	15.71271	15.03522	14.08119	11.61885	9.11940	6.24174	12.24392	11.73135	10.61454	5.49061	4.68886	4.09367	23.07267	19.92734	16.74358
45270	3.59570	3.77913	2.63312	15.73883	15.38443	14.19528	11.79939	9.25345	6.41776	12.05614	11.69271	10.43666	5.65925	4.79028	4.26343	22.75436	20.25892	16.97719
45430	3.55356	3.82049	2.66618	15.91019	14.97036	14.25514	11.65381	9.10159	6.37513	11.90172	11.60695	10.37749	5.51098	4.72622	4.35616	22.85984	19.90279	16.75860
45600	3.68600	3.70696	2.72898	15.82732	15.17900	14.16390	11.65330	9.34553	6.42733	11.97262	11.62831	10.73021	5.50730	4.83478	4.14297	22.87393	20.01735	17.23101
45760	3.53403	3.70322	2.74069	16.36178	15.21213	14.16235	11.77914	9.10934	6.33686	11.92444	11.68664	10.95322	5.42634	4.70592	4.25593	23.11669	20.26806	17.20495
45930	3.48616	3.71004	2.71997	16.48713	15.42615	14.58675	11.85844	9.43465	6.32415	12.83673	12.26455	10.82528	5.51374	4.76848	4.25417	23.38975	20.62510	17.83708	25.57	6.2	0.00	7.35	0.01274	0.01290	0.01669	0.00772	0.00575	0.00631	0.00468	0.01267	0.01687	0.00671	0.00682	0.00885	0.01491	0.01097	0.01198	0.00216	0.00612	0.00860
46090	3.43726	3.76065	2.71534	16.26306	15.31881	14.58821	12.01465	9.36048	6.37156	12.05169	11.67459	10.67447	5.54556	5.01387	4.21839	23.41284	20.34466	17.03353
46250	3.49880	3.79160	2.65612	16.06786	15.29179	14.29428	11.73332	9.13991	6.12451	12.13429	11.72796	10.62783	5.45358	4.72197	4.13963	22.81258	19.78167	16.90157
46420	3.47911	3.73070	2.59781	15.90600	14.77284	14.02243	11.64166	9.10808	6.27353	12.04234	11.36783	10.52216	5.26494	4.63632	4.05354	22.69630	19.91909	16.67564
46580	3.38259	3.63642	2.60635	15.82404	14.73649	13.85923	11.69947	9.14408	6.16693	11.78027	11.11993	10.39182	5.28882	4.58656	4.05984	22.29001	20.01977	16.59535
46750	3.43239	3.65831	2.55578	15.72256	14.97482	14.11565	11.48658	9.06183	6.32347	11.98798	11.74958	10.64040	5.40672	4.61400	4.09914	22.59687	19.87410	16.70242
46910	3.59444	3.88045	2.66464	16.17419	15.19030	14.37022	11.97112	9.28295	6.22450	11.94276	11.81178	10.79771	5.39301	4.68246	4.08850	22.52850	19.80309	16.88751
47070	3.48777	3.76219	2.59774	15.84271	14.81003	14.02104	11.69608	9.10563	6.46200	11.89649	11.54553	10.98775	5.34505	4.69979	4.09487	22.90004	20.73163	17.03800
47240	3.37168	3.59455	2.60008	16.03413	14.96470	14.55392	11.61200	9.09021	6.24304	12.17582	12.20110	10.71380	5.26130	4.61220	4.05687	23.05080	20.01222	17.16267
47400	3.40747	3.60704	2.56108	15.89950	15.12144	14.18642	11.58921	9.30279	6.18162	12.22906	11.54204	10.82278	5.35598	4.70561	4.09446	22.63160	19.85377	16.77651
47570	3.53976	3.70155	2.59767	15.71938	15.00832	14.35437	11.65573	9.33809	6.48461	12.05459	11.58611	10.91733	5.52049	4.80742	4.18459	22.84873	20.19926	17.83257	25.57	6.0	0.00	7.37	0.01274	0.01290	0.01669	0.00772	0.00575	0.00631	0.00468	0.01267	0.01687	0.00671	0.00682	0.00885	0.01491	0.01097	0.01198	0.00216	0.00612	0.00860
47730	3.49880	4.02206	3.12971	16.15299	15.67299	14.91431	11.97207	9.61887	6.68885	12.77734	12.88266	11.53008	5.93151	5.10460	4.50203	23.81396	21.35929	18.04263
47890	4.03024	4.16146	3.21490	16.73552	15.85349	15.06436	12.27128	9.59418	6.92083	12.72833	12.26440	11.25613	5.91546	5.36385	4.61847	23.61803	21.08574	18.20110
48060	4.05926	3.95374	3.04005	16.65620	16.04422	14.91799	12.09596	9.30979	6.59369	13.01200	12.10956	11.03388	5.64670	4.85346	4.34545	23.70199	20.55961	17.40759
48220	3.60405	3.86072	2.72311	16.46358	15.26737	14.69101	11.69754	9.31541	6.31629	12.31021	11.92851	11.01931	5.50115	4.76391	4.16281	22.96797	20.20281	16.88264
48380	3.43339	3.89163	2.67138	16.08787	15.01043	14.20095	11.70197	8.92421	6.11983	11.94864	11.97799	10.57527	5.41648	4.62498	4.17203	22.54197	19.81424	16.87056
48540	3.44775	3.73668	2.69472	15.77888	14.87244	14.13525	12.12687	9.17734	6.17947	12.30333	11.64314	10.73442	5.37884	4.60599	4.08725	23.08410	19.81851	17.11407
48710	3.41226	3.60198	2.52354	15.81288	14.69929	14.60975	11.68774	9.16158	6.16392	11.86849	11.92222	10.62004	5.32377	4.84420	4.23316	22.99876	19.95570	16.96825
48870	3.53806	3.70708	2.76199	16.03953	16.14235	14.33268	11.96623	9.23420	6.30972	12.14438	11.76036	10.67482	5.72635	4.82078	4.29924	23.44198	21.02800	18.00818
49040	3.67635	3.78402	2.89277	16.58704	15.61690	14.74644	11.81612	9.18445	6.44419	12.27123	11.86788	11.09553	5.57416	4.75581	4.18500	23.44473	20.50014	17.93321
49200	3.61074	3.73120	2.81744	16.28198	15.13217	14.35120	11.76494	9.12751	6.27113	12.04094	11.65758	10.47008	5.46118	4.70256	4.19990	22.58126	19.81092	16.71050	25.63	6.0	0.00	7.47	0.01274	0.01290	0.01669	0.00772	0.00575	0.00631	0.00468	0.01267	0.01687	0.00671	0.00682	0.00885	0.01491	0.01097	0.01198	0.00216	0.00612	0.00860
49360	3.54353	3.72569	2.72816	15.71228	14.87291	14.16130	11.65711	9.08281	6.23250	11.89403	11.49679	10.63167	5.39945	4.65890	4.05500	22.93464	19.70431	16.74137
49530	3.41216	3.69894	2.75232	15.56195	15.09151	14.09493	11.68735	9.03614	6.17721	11.60968	11.21497	10.60411	5.33295	4.51375	4.00162	22.67726	19.66035	16.75426
49690	3.37330	3.64590	2.64224	15.75765	15.06625	14.06401	11.48710	9.08320	6.13330	11.72892	11.22313	10.02958	5.21717	4.58034	3.96856	22.25842	19.80883	16.52717
49860	3.33801	3.63067	2.73021	15.55667	14.64267	13.92123	11.68631	9.03152	6.14543	11.56387	11.22792	10.27920	5.18355	4.60115	3.99860	22.81952	19.54958	16.72980
50020	3.32931	3.60569	2.58407	15.33891	14.58244	13.95789	11.66394	9.16319	6.29880	11.70390	11.89376	10.33313	5.43336	4.57332	4.04952	22.33904	19.57236	16.58775
50180	3.41814	3.68174	2.80720	16.06608	14.97905	14.12823	11.58888	9.13955	6.16372	11.90547	11.32491	10.36505	5.29174	4.56594	4.06487	22.40719	19.64839	16.67023
50350	3.36880	3.56959	2.68317	15.56937	14.92485	13.89363	11.51285	9.07155	6.22084	11.97366	11.47453	10.64078	5.36643	4.62509	4.13296	22.68090	19.84964	16.93997
50510	3.37136	3.69356	2.57024	15.84270	15.24049	13.84749	11.67188	8.93990	6.14059	11.67961	11.44144	10.46075	5.26291	4.78215	4.06699	22.58378	19.56893	16.73732
50680	3.51106	3.67939	2.59461	15.89147	14.75386	13.83899	11.55748	9.19501	6.12836	11.84205	11.56402	10.51930	5.27270	4.67708	4.13924	22.24342	19.87923	16.91785
50840	3.35338	3.66138	3.05898	15.68077	14.69871	13.78232	11.84462	9.09006	6.12593	11.76245	11.38440	10.33341	5.39786	4.71603	4.03904	22.33161	19.49822	16.55072	25.57	6.1	0.00	7.31	0.01274	0.01290	0.01669	0.00772	0.00575	0.00631	0.00468	0.01266	0.01687	0.00671	0.00682	0.00885	0.01491	0.01097	0.01198	0.00216	0.00612	0.00860
51010	3.37775	3.63961	2.57393	15.60937	14.62742	13.84044	11.54234	8.97789	6.11770	11.61948	11.12775	10.09914	5.21450	4.54512	4.01041	22.67281	19.37813	16.47885
51170	3.27615	3.52718	2.54102	15.76230	14.86418	13.89723	11.43658	8.90902	6.05606	11.54058	11.45157	10.47891	5.28989	4.67249	4.05405	22.23852	19.61464	16.94072
51340	3.46113	3.70978	2.71162	15.42733	14.76106	13.85389	11.64497	9.00570	6.17566	11.73764	11.19375	10.34883	5.31383	4.60565	4.09951	22.87494	19.97566	16.60978
51500	3.26623	3.60634	2.65688	15.78267	14.97872	13.95248	11.58980	9.10315	6.07878	11.91709	11.46718	10.33259	5.33569	4.57223	3.90919	22.90506	20.28479	17.11713
51670	3.40100	3.57634	2.59676	16.03891	15.31362	14.43382	11.58171	9.31166	6.16018	12.38607	11.60180	10.64388	5.39706	4.59212	4.39185	22.78035	19.93723	16.96556
51830	3.54854	3.83536	2.71961	15.62018	14.99772	14.04586	11.67444	9.64019	6.19911	11.85609	11.40759	10.43030	5.23459	4.66019	4.01601	22.41991	19.82613	16.56299
51990	3.45934	4.32554	2.62075	15.74983	15.19125	14.15003	11.69912	9.07852	6.13910	11.68230	11.53565	10.31913	5.31680	4.57261	3.95149	22.45865	19.74469	16.68112
52160	3.25897	3.52827	2.53922	15.51381	15.00847	14.09901	11.45571	8.94705	6.07381	11.62220	11.38195	10.90454	5.25580	4.55633	4.18933	23.07253	20.08630	16.86175
52320	3.47311	3.58060	2.61080	15.65908	15.15451	14.03013	11.95359	9.02130	6.24685	11.87705	11.39441	10.50715	5.62476	4.70306	4.08972	22.61260	19.63067	16.92971
52490	3.52500	3.71892	2.69528	15.74796	14.92080	13.98737	11.57231	8.95059	6.18847	11.58979	11.35820	10.40040	5.42652	4.53677	4.07337	22.46897	19.60393	16.60189	25.63	6.1	0.00	7.43	0.01274	0.01290	0.01669	0.00772	0.00575	0.00631	0.00468	0.01266	0.01687	0.00671	0.00682	0.00885	0.01491	0.01097	0.01198	0.00216	0.00612	0.00860
52650	3.46464	3.55905	2.61184	15.44818	14.64618	13.67204	11.52297	9.12447	6.38373	11.67455	11.16881	10.15362	5.36152	4.61069	3.99769	22.48896	19.75035	16.40865
52820	3.45195	3.65564	2.61617	15.59635	14.91062	14.03441	11.57063	8.98648	6.11412	11.97008	11.68275	10.53273	5.26261	4.60251	4.02778	22.54198	19.66447	16.52610
52980	3.44272	3.70676	2.66153	15.70915	14.98534	14.45784	11.55244	9.07696	6.17836	11.91389	11.94453	10.71765	5.40673	4.66591	4.04994	22.65505	20.22288	16.89396
53150	3.44880	3.90447	2.73841	15.81587	15.15086	14.12987	11.51211	9.07112	6.22610	11.88222	11.30263	10.69519	5.36239	4.65809	4.03581	22.50576	19.64101	16.92974
53310	3.35706	3.61578	2.57871	15.91777	14.89794	13.91832	11.69684	9.07654	6.33618	11.60176	11.40778	10.51297	5.39695	4.70347	4.05592	22.55168	20.00059	16.94612
53480	3.47627	3.72884	2.68693	15.72336	14.89119	14.11180	11.94512	9.13947	6.18473	11.63528	11.43797	10.51576	5.29004	4.69874	4.17601	22.60902	19.97479	16.84080
53640	3.53908	3.67798	2.61268	15.81914	14.86655	14.38630	11.59973	9.04566	6.31620	12.25785	11.70978	10.79759	5.34351	4.53235	4.10026	22.80439	20.42394	17.39703
53800	3.52574	3.72747	2.66454	15.90786	15.54633	14.48162	11.53124	9.18829	6.51260	12.25175	11.75970	10.92480	5.52111	4.77366	4.21588	23.11944	20.47524	17.38127
53970	3.72842	3.84617	2.87583	16.72443	15.79752	14.99106	11.83242	9.36912	6.38800	12.43360	12.10794	11.82568	5.67911	4.91347	4.30508	23.77732	20.55582	17.12139
54130	3.72036	3.92171	2.88652	16.32463	15.49103	14.88035	11.91931	9.36015	6.49415	13.15875	12.65788	11.36853	5.66524	4.92145	4.38998	23.66967	20.86343	17.70807	25.57	6.3	0.00	7.34	0.01274	0.01290	0.01669	0.00772	0.00575	0.00631	0.00468	0.01266	0.01687	0.00671	0.00682	0.00885	0.01491	0.01097	0.01198	0.00216	0.00612	0.00860
54290	3.62763	3.96338	2.85995	16.63986	15.36055	14.71482	11.77859	9.32869	6.55672	12.31033	12.00886	10.98301	5.54854	4.78966	4.29061	22.95709	20.35592	17.54044
54460	3.57577	3.70324	2.74664	16.17127	15.12787	14.31708	11.69122	9.20798	6.32249	12.23107	12.07039	11.08533	5.45637	4.77840	4.12533	23.23075	20.49371	17.38158
54620	3.51274	3.80870	2.71747	16.29386	15.36293	14.41799	11.66891	9.10618	6.17042	12.47876	11.85767	11.17795	5.41990	4.68576	4.08847	22.90667	20.12609	17.05326
54790	3.45399	3.73470	2.63067	15.97292	14.94488	14.16936	11.66178	9.07111	6.30154	11.86034	11.48401	10.47251	5.34509	4.67486	4.12326	22.58483	19.90632	16.88589
54950	3.96288	3.99653	2.59319	15.64256	15.02167	14.22221	11.58745	8.96312	6.04827	11.81723	11.67011	10.47649	5.23992	4.66153	4.07939	22.59819	19.94896	16.79370
55110	3.35966	3.60504	2.57766	15.93071	15.04408	13.90843	11.70022	9.20611	6.22451	11.71023	11.25885	10.46546	5.38931	4.66296	4.12316	22.75693	19.86605	16.69948
55280	3.48625	3.65119	2.54244	15.81052	14.87994	13.97391	11.56275	9.18997	6.07558	11.81757	11.58947	10.57138	5.40857	5.10797	4.03186	23.06437	19.60060	16.77466
55440	3.36178	3.60436	2.58726	15.89316	14.95485	14.55225	11.59212	9.00956	6.17444	11.75869	12.38684	11.14215	5.28503	4.59602	4.11820	22.72542	20.19639	16.90980
55600	3.42759	3.55197	2.66676	15.93960	14.82188	13.85950	11.63594	9.04796	6.11921	11.81895	11.63920	10.81508	5.28932	4.67363	4.02795	22.66742	19.85670	17.04257
55770	3.74484	3.78732	2.68383	15.60430	14.93643	14.25185	11.59182	9.05963	6.26396	11.79541	11.36750	10.44664	5.29875	4.57735	4.06342	22.73357	20.48659	16.56949	25.63	6.1	0.00	7.48	0.01274	0.01290	0.01669	0.00772	0.00575	0.00631	0.00468	0.01266	0.01687	0.00671	0.00682	0.00885	0.01491	0.01097	0.01198	0.00216	0.00612	0.00860
55930	3.38108	3.62632	2.62421	15.87395	15.50831	14.08409	11.57694	9.09794	6.24497	11.65159	11.37469	10.31611	5.32915	4.69501	4.14108	22.70322	19.89837	16.60398
56100	3.40372	3.73012	2.74516	15.86320	14.91755	14.13683	11.45387	9.05263	6.12026	11.78044	11.82315	10.66051	5.35137	4.66401	4.06001	22.86774	20.07781	17.48215
56260	3.34412	3.59605	2.53967	15.78791	15.12212	14.23482	11.58569	9.05324	6.03747	12.19316	11.49747	10.49111	5.40895	4.77398	4.18488	23.10886	20.12032	17.30969
56430	3.60738	3.76209	2.65698	15.94198	14.97519	14.22095	11.68252	9.14347	6.14308	11.97067	11.57491	10.72499	5.49753	4.71220	4.03423	22.85068	19.94262	16.90255
56590	3.47340	3.61964	2.63529	16.00873	15.15174	14.17112	11.69247	9.07606	6.09386	11.98029	11.63330	10.77822	5.45364	4.62069	4.13406	23.11646	19.89282	16.82810
56750	3.43371	3.65310	2.66081	16.20674	15.46958	14.33174	11.66853	9.08933	6.21732	12.32548	11.67577	10.73763	5.48932	4.69263	4.30183	22.71564	20.16674	17.00699
56920	3.40089	3.62390	2.72988	16.02397	15.04178	14.35593	11.61191	9.06467	6.13030	11.87169	11.66678	10.57473	5.37090	4.60374	4.08106	22.95158	19.99422	17.00560
57080	3.50251	3.70156	2.93160	16.00027	15.18877	14.62697	11.59160	9.14677	6.40594	11.94682	11.68277	10.53686	5.51822	4.78606	4.31672	22.81629	20.03161	16.74146
57250	3.57364	3.76664	2.73405	15.91138	15.23100	14.07917	11.76855	9.13813	6.25715	12.07958	11.54489	10.44849	5.40579	4.63739	4.12650	23.19322	20.09606	16.97809
57410	3.37886	3.69033	2.55848	15.95598	15.03113	13.98897	11.70546	9.15173	6.10462	11.97971	11.98082	10.80874	5.35642	4.61359	4.03989	22.99403	19.87131	16.61505	25.63	6.1	0.00	7.46	0.01274	0.01290	0.01669	0.00772	0.00575	0.00631	0.00468	0.01266	0.01687	0.00671	0.00682	0.00885	0.01491	0.01097	0.01198	0.00216	0.00612	0.00860
57570	3.42193	3.86791	2.74202	16.20571	15.00778	14.16191	11.66678	9.32388	6.38461	11.89380	11.54756	10.44380	5.62190	4.72352	4.18210	22.97450	20.19383	16.97327
57740	3.50416	3.66758	2.61831	16.12578	15.15876	14.56840	11.70797	9.14748	6.21573	11.98797	11.54819	10.57185	5.32597	4.61481	4.09194	23.00192	19.81160	16.58898
57900	3.63024	3.61281	2.59292	16.17408	14.99595	14.45495	11.55003	9.06686	6.20330	12.28396	11.99157	10.43126	5.39064	4.69271	4.07152	22.76326	19.99905	16.83362
58060	3.50755	3.77094	2.61311	15.99924	15.12386	14.03666	11.57579	9.10513	6.22056	12.00524	11.52433	10.57156	5.35488	4.79156	4.17011	22.60219	20.28629	17.01162
58230	3.41631	3.61233	2.61231	15.83841	14.97527	14.11880	11.56945	8.96014	6.27328	11.75210	11.84136	10.64900	5.33638	4.56735	4.09364	22.69662	19.93771	16.83688
58390	3.33368	3.56121	2.85910	15.88741	15.22758	14.21794	11.89084	9.39448	6.35433	11.73727	11.48992	10.47214	5.39295	4.76306	4.15981	22.65293	19.75942	16.80955
58560	3.39757	3.63656	2.56244	15.76262	14.95403	14.13109	11.60250	8.99151	6.26321	11.69697	11.50704	10.36312	5.56763	4.84849	4.24012	22.59461	19.82985	16.86791
58720	3.68986	3.82710	2.67779	16.14660	15.24891	14.21280	11.55555	8.98662	6.16207	12.01566	11.51159	10.73579	5.35033	4.80921	4.15853	22.95725	20.75120	16.90438
58880	3.52386	3.73786	2.63723	15.71123	15.02617	14.36322	11.56312	9.05116	6.20870	11.82780	11.70492	10.35856	5.45446	4.68506	4.08395	22.54093	19.80809	16.81815
59050	3.46580	3.54633	2.62018	16.14139	15.20259	14.01599	11.53976	9.04255	6.19713	11.82286	11.32400	10.52617	5.47840	4.75776	4.06622	22.68627	19.58469	16.64873	25.57	6.1	0.00	7.42	0.01274	0.01290	0.01669	0.00772	0.00575	0.00631	0.00468	0.01266	0.01687	0.00671	0.00682	0.00885	0.01491	0.01097	0.01198	0.00216	0.00612	0.00860
59210	3.40234	3.80566	2.61920	15.63624	14.87839	13.90748	11.57344	9.03475	6.13311	11.80579	11.41672	10.50083	5.22555	4.65679	4.15107	22.51612	19.68038	16.70290
59380	3.43630	3.66702	2.61136	15.73459	14.82473	13.96844	11.75653	9.07683	6.08062	11.84131	11.42997	10.30082	5.14360	4.55964	4.05965	22.76859	19.82793	16.77385
59540	3.52199	3.67910	2.67301	16.03139	14.96815	13.94351	11.70095	9.02464	6.18224	12.32101	11.67833	10.57232	5.33424	4.78219	4.10584	22.78366	20.04870	16.98829
59710	3.51666	3.76838	2.63979	15.96725	15.22813	14.17143	11.94304	9.20688	6.30943	11.89243	11.55855	10.44136	5.35356	4.59397	4.09287	22.75024	20.12727	16.76606
59870	3.40511	3.69585	2.62548	15.82483	14.99309	14.26983	11.70760	9.07222	6.18441	12.01414	11.58752	10.52818	5.44067	4.77508	4.17268	22.49787	19.95897	16.84375
60030	3.45414	3.67067	2.57675	16.12471	15.05416	14.29666	11.65898	9.31832	6.13508	11.77236	11.87931	10.46870	5.44480	4.58971	4.07389	22.65172	19.90343	16.86810
60200	3.39582	3.67433	2.56639	15.79107	15.01617	14.07777	11.97052	9.12489	6.23807	11.99792	11.68914	10.62563	5.47773	4.65883	4.11404	22.98246	20.02015	16.94541
60360	3.47601	3.67958	2.61955	15.77112	15.02706	14.19031	11.72711	9.22905	6.20066	11.92243	11.40137	10.60207	5.32425	4.67055	4.00621	23.60134	19.90085	16.67386
60530	3.50235	3.65831	2.65951	15.92659	14.89224	14.12674	11.84298	9.08182	6.28723	11.55762	11.32792	10.38315	5.44850	4.79525	4.27231	22.45256	19.89941	16.64878
60690	3.38383	3.60691	2.50796	15.85933	14.94330	13.92090	11.61945	8.99895	6.14980	11.79218	11.76629	10.81582	5.52746	4.58491	4.04191	22.83694	19.68928	16.82721	25.57	6.2	0.00	7.46	0.01274	0.01290	0.01669	0.00772	0.00575	0.00631	0.00468	0.01266	0.01687	0.00671	0.00682	0.00885	0.01491	0.01097	0.01198	0.00216	0.00612	0.00860
60850	3.31869	3.59726	2.64592	15.88491	15.00007	13.95259	11.64225	9.16716	6.23041	11.71400	11.21914	10.53795	5.39066	4.61428	4.10288	22.61106	20.16613	16.99098
61020	3.42269	3.62833	2.62762	15.83607	14.95983	14.15874	11.68622	9.14598	6.16153	11.81751	11.47987	10.49902	5.38392	4.74553	4.07285	22.58075	19.72799	16.64442
61180	3.53849	3.88889	2.75959	15.70192	14.93184	14.18758	11.76791	9.19058	6.44489	12.11649	11.69954	10.71985	5.51620	4.89243	4.37261	22.84692	20.23669	17.22854
61340	3.79469	4.00567	3.13924	16.17232	15.70510	14.70926	12.06235	9.39532	6.35319	12.37685	12.02731	11.05106	5.65210	4.82591	4.40141	22.91860	20.16888	17.11101
61510	3.69711	3.84661	2.81405	16.19785	15.30104	14.71466	11.84354	9.31522	6.37975	12.19634	11.99121	10.88001	5.53801	4.91354	4.19920	23.35626	20.00912	17.14958
61670	3.58154	3.70089	2.82125	15.93878	15.42846	14.02672	11.54891	9.16240	6.27184	12.10288	11.83074	10.40407	5.51436	4.78854	4.19175	22.90817	20.11815	16.96238
61830	3.53290	3.79896	2.68163	15.97611	14.89994	14.13952	11.79216	9.05316	6.33878	11.97080	11.52532	10.54772	5.32348	4.66806	4.10886	23.01032	20.29092	16.97956
62000	3.38283	3.69759	2.58172	16.03242	15.21536	14.22498	11.69787	9.05855	6.19604	11.99567	11.33894	10.49353	5.26478	4.62201	4.04236	22.71240	19.75815	16.81515
62160	3.35524	3.55774	2.75452	15.65003	14.64851	13.84366	11.60453	9.08073	6.16567	11.53587	11.35798	10.39312	5.22148	4.55936	4.04902	22.82696	19.86809	17.20481
62320	3.42082	3.61615	2.58615	16.00412	14.92132	14.35123	11.53650	9.05088	6.06388	12.12176	11.67817	10.93319	5.43529	4.62787	4.03376	22.73727	19.75413	16.79310	25.69	6.2	0.00	7.33	0.01274	0.01290	0.01669	0.00772	0.00575	0.00631	0.00468	0.01266	0.01687	0.00671	0.00682	0.00885	0.01491	0.01097	0.01198	0.00216	0.00612	0.00860
62490	3.44130	3.65172	2.60781	15.90788	14.93949	14.00116	11.63433	9.28896	6.24520	11.66659	11.33350	10.42636	5.43556	4.64268	4.01201	22.37707	19.88019	16.91563
62650	3.46735	3.70920	2.62635	15.39468	14.78471	13.86658	11.58329	8.99278	6.11624	11.51835	11.32067	10.61264	5.29496	4.56221	3.95532	22.55160	19.73942	16.46694
62820	3.38184	3.52161	2.56848	15.45256	14.73896	14.05213	11.47058	8.89103	6.15390	11.43032	11.41008	10.91980	5.32634	4.67970	4.06993	22.38590	19.62722	16.42011
62980	3.42403	3.58426	2.70877	16.47285	15.16914	14.44068	11.79036	9.12535	6.27583	12.06502	11.76670	10.85095	5.42435	4.78902	4.31249	22.77761	20.67569	17.14598
63140	3.74964	3.90095	3.01311	16.34510	15.67773	14.78995	11.84936	9.20122	6.44113	12.44927	12.05760	11.11621	5.59033	4.80811	4.42542	23.28223	21.05266	17.58309
63310	3.76856	4.03846	2.99063	16.28020	15.41671	14.37966	11.72920	9.14606	6.39404	12.22392	11.92456	10.96553	5.55790	4.87153	4.36089	23.14404	20.20143	17.22177
63470	3.53757	3.81381	2.72888	15.88907	14.92569	14.28786	11.67171	9.09946	6.89749	12.12508	11.51749	10.70429	5.75759	5.21798	4.39040	22.78166	19.93839	16.96391
63640	3.61563	3.68605	2.78661	16.13339	15.30236	14.33955	11.56900	9.29812	6.19946	11.96595	11.53999	10.53367	5.42337	4.75354	4.11307	22.77688	20.03841	17.14161
63800	3.56184	3.79528	2.63406	15.95588	15.41639	14.45259	11.74912	9.14903	6.16388	11.88058	11.74724	10.70128	5.33161	4.61767	4.16019	22.65743	19.93598	16.81592
63970	3.37819	3.63574	2.67962	15.63714	14.82209	14.23410	11.52799	8.98689	6.09429	11.73867	11.36265	10.55047	5.27807	4.68008	4.05767	22.82161	19.81913	16.68120	25.63	6.1	0.00	7.43	0.01274	0.01290	0.01669	0.00772	0.00575	0.00631	0.00468	0.01266	0.01687	0.00671	0.00682	0.00885	0.01491	0.01097	0.01198	0.00216	0.00612	0.00860
64130	3.34856	3.54141	2.61691	15.90505	15.03597	14.22064	11.56978	9.02035	6.09063	12.06648	11.52082	10.64784	5.43661	4.58816	4.04675	22.64421	20.01997	16.77282
64300	3.48482	3.76373	2.68961	15.89452	15.03779	14.59184	11.56068	9.01209	6.09916	11.92969	11.66759	10.67755	5.42502	4.60522	4.03706	23.10115	20.50087	17.04951
64460	3.33408	3.64992	2.62023	16.06762	15.07744	14.50264	11.96355	9.21094	6.23929	11.95471	12.21497	10.99756	5.44584	4.68780	4.19279	22.96321	20.18602	17.29520
64620	3.51256	3.76598	2.73504	16.14103	15.26239	14.36732	11.69967	9.20808	6.15685	12.10310	11.69322	10.69547	5.41714	4.78249	4.33806	22.89644	19.97548	17.32758
64790	3.50777	3.82815	2.71260	16.04077	15.38317	14.42548	11.72197	9.14763	6.27631	12.25790	11.82345	10.66207	5.41253	4.71047	4.30870	22.85340	19.94600	16.92334
64950	3.46496	3.65538	2.60529	16.04202	15.13748	14.44866	11.71214	9.18165	6.19422	11.97002	11.60202	10.50478	5.31931	4.59480	4.17836	23.05760	20.13246	17.11886
65110	3.47344	3.67087	2.58094	16.04881	14.97532	14.13222	11.67550	9.11392	6.21798	11.72356	11.41536	10.57608	5.42230	4.58851	4.05180	22.55147	20.00912	17.03862
65280	3.62541	3.66200	2.64400	15.81513	15.03579	14.14502	11.64236	9.17435	6.14490	11.92571	11.43026	10.54114	5.60479	4.70739	4.12779	23.10191	19.91248	16.86227
65440	3.50009	3.74843	2.65686	16.02740	15.28448	14.19024	11.92499	9.27252	6.27905	11.99918	11.63599	10.71493	5.79705	4.74262	4.14668	23.30472	20.19233	17.18748
65610	3.48476	3.76385	2.89258	16.10098	15.11455	14.51239	11.65700	9.17162	6.26875	12.19582	11.76071	10.81120	5.34410	4.69017	4.07433	22.97088	20.22690	17.44661	25.63	6.0	0.00	7.21	0.01274	0.01290	0.01669	0.00772	0.00575	0.00631	0.00468	0.01266	0.01687	0.00671	0.00682	0.00884	0.01491	0.01097	0.01198	0.00216	0.00612	0.00860
65770	3.50451	3.65078	2.74019	15.93852	15.15262	14.40766	11.68879	9.35642	6.30775	11.80378	11.69833	10.47417	5.33241	4.68027	4.10386	22.84211	20.43578	16.89468
65940	3.44556	3.71556	2.62712	16.12578	15.53025	14.62070	11.51238	9.05353	6.24132	11.92947	11.53168	10.51182	5.34032	4.72340	4.11409	22.69492	19.74578	16.88024
66100	3.52795	3.66439	2.64191	15.74868	14.86744	14.27751	12.14466	8.99092	6.11130	12.19481	11.92585	10.63579	5.25077	4.59387	4.08970	22.68946	19.93725	16.78318
66260	3.48956	3.65336	2.56861	15.75853	14.81253	13.92206	11.63836	9.10369	6.15704	11.84324	11.53554	10.49741	5.44833	4.61882	4.09573	22.89662	19.86179	17.22135
66430	3.33019	3.72651	2.58739	16.15119	15.35103	14.55931	11.64966	9.19348	6.16209	12.09164	11.74926	10.68945	5.36848	4.63225	4.06084	22.92976	20.16299	17.24298
66590	3.46761	3.67959	2.63584	16.44502	15.10149	14.05357	11.73917	9.26588	6.27830	12.01817	11.69566	10.66253	5.40930	4.64306	4.09521	22.81515	20.14138	16.93281
66760	3.45035	3.64026	2.74051	15.98682	15.12959	14.44609	11.74710	9.10997	6.23014	11.87215	11.57379	10.61829	5.44649	4.73317	4.14308	22.68509	19.87124	16.86431
66920	3.43771	3.66256	2.64210	15.93249	15.24805	14.29111	11.74621	9.02032	6.21930	11.87407	11.30757	10.54312	5.31223	4.68405	4.00302	22.56317	19.80167	16.95669
67080	3.41083	3.60383	2.60679	16.02877	14.96276	14.08430	11.52643	9.03921	6.10593	11.82688	11.51071	10.63683	5.42556	4.62677	4.11739	22.86692	19.80765	16.57294
67250	3.41272	3.66075	2.73967	15.94727	14.93428	14.16909	11.87766	9.30774	6.16645	11.69532	11.47839	10.41465	5.43425	4.63306	4.03093	22.58118	19.91644	17.01777	25.63	6.0	0.00	7.34	0.01274	0.01290	0.01669	0.00772	0.00575	0.00631	0.00468	0.01266	0.01687	0.00671	0.00682	0.00884	0.01491	0.01097	0.01198	0.00216	0.00612	0.00860
67410	3.39438	3.69227	2.66937	15.89464	15.08225	14.05368	11.73546	9.17508	6.36883	11.98443	11.73390	10.60009	5.48101	4.95530	4.19325	22.77027	19.82232	17.59904
67570	3.52623	3.77606	2.69564	15.86119	15.09840	14.70866	11.62846	9.17861	6.16371	11.85284	11.93904	10.78520	5.41403	4.62914	4.15985	23.16638	20.29965	17.02015
67740	3.49926	3.74523	2.65877	15.70462	15.04895	14.05165	11.58490	8.95506	6.19054	11.57031	11.30148	10.65274	5.44853	4.63558	4.08163	22.80594	20.03705	16.79294
67900	3.51700	3.61462	2.70632	16.49380	14.83550	14.09242	11.59154	8.99893	6.23933	11.51133	11.34482	10.53634	5.26036	4.55605	3.97974	22.69821	19.76935	16.41941
68060	3.48696	3.70294	2.59979	15.82560	14.99154	13.99778	11.63286	8.94156	6.09960	12.29800	11.59614	10.66634	5.43683	4.58169	4.01766	22.87581	20.07362	16.85881
68230	3.39481	3.61933	2.63503	16.08443	15.79015	14.24241	11.49054	8.97964	6.20109	12.01341	12.00450	10.62688	5.24109	4.62478	4.03962	22.81847	19.87662	17.13866
68390	3.43043	3.59725	2.63066	16.43655	15.77187	14.24555	11.76876	9.04082	6.16777	11.86484	11.84235	10.95284	5.34030	4.61078	4.10933	22.76696	19.92671	16.92787
68560	3.36945	3.68462	2.62217	15.97337	15.12575	14.48360	11.62524	9.29658	6.29184	11.90439	11.66397	10.63138	5.41522	4.66002	4.14672	22.93236	20.20839	17.22927
68720	3.57593	3.82329	2.69674	16.04164	15.22758	14.26643	11.70958	9.07149	6.41564	12.44543	11.92564	11.21135	5.54391	4.69298	4.12788	23.29283	20.42500	17.23661
68880	3.49216	3.99235	2.66962	16.51727	16.20606	14.78457	12.07571	9.48390	6.36722	13.11589	12.74580	11.33725	6.07068	5.27381	4.50007	24.13616	20.89897	17.83673	25.63	6.2	0.00	7.34	0.01274	0.01290	0.01669	0.00772	0.00575	0.00631	0.00468	0.01266	0.01687	0.00671	0.00682	0.00884	0.01491	0.01097	0.01198	0.00216	0.00612	0.00860
69050	3.87359	4.11987	2.95422	17.24212	16.02138	15.22478	11.96547	9.56762	6.57488	12.99045	12.64063	11.55664	5.84155	5.01539	4.55886	24.38026	21.33891	18.00565
69210	3.91097	4.09447	2.97012	16.60203	15.81664	15.09216	11.97950	9.48038	6.37205	12.80734	12.24943	11.37559	5.57709	4.97459	4.33062	23.60271	20.66489	17.37596
69380	3.67606	4.02853	2.97949	16.39555	15.41970	14.59863	11.72436	9.45510	6.44889	12.32118	12.31036	10.95237	5.50628	4.89245	4.24783	23.28040	20.34705	17.17577
69540	3.51358	3.70565	2.79954	16.55704	15.75923	14.75040	11.88368	9.24756	6.26263	12.62322	11.85689	10.65288	5.52781	4.72216	4.19936	23.18888	20.19844	17.05508
69700	3.62910	3.82689	2.69638	16.21490	15.48983	14.54450	11.79889	9.22513	6.31668	12.26059	11.56409	10.59091	5.41803	4.77336	4.12772	22.80843	20.53630	17.19362
69870	3.49350	3.77711	2.63128	16.10271	15.34601	14.32095	11.58211	9.17927	6.28615	12.03346	11.67355	10.80820	5.34154	4.73564	4.09366	22.79186	20.12031	16.58734
70030	3.54091	3.83031	2.63567	16.02620	14.89337	14.23185	11.62332	9.11127	6.27647	11.85549	11.49358	10.68926	5.43219	4.72277	4.09226	22.93414	20.16053	17.16585
70200	3.35083	3.62721	2.59112	16.00593	15.16015	14.34520	11.68546	9.18590	6.33355	12.12233	11.57783	10.53541	5.44287	4.62006	4.05850	22.97003	20.26516	17.04652
70360	3.42442	3.66161	2.65663	16.00270	15.09681	14.36063	11.74250	9.21100	6.37235	12.16284	11.82185	10.89159	5.36598	4.67980	4.18451	23.16937	20.24909	17.10543
70530	3.46945	3.66937	2.60204	16.13007	15.19831	14.28380	11.67067	9.06075	6.09930	11.96074	11.58264	10.60060	5.34698	4.63791	3.94723	22.81250	20.03579	17.10388	25.69	6.1	0.00	6.71	0.01274	0.01290	0.01669	0.00772	0.00575	0.00631	0.00468	0.01266	0.01687	0.00671	0.00682	0.00884	0.01491	0.01097	0.01198	0.00216	0.00612	0.00860
70690	3.41450	3.72262	2.66966	15.68661	15.02774	14.42967	11.78260	9.26953	6.15984	11.95060	11.74002	10.55245	5.41294	4.64208	4.18851	22.66969	19.87154	16.90085
70860	3.43353	3.64791	2.69168	16.03451	15.54098	14.30248	11.71328	9.08245	6.14552	11.81523	11.67413	10.54413	5.52342	4.66012	4.24888	22.82357	20.24136	17.07865
