WetView ver 7.1	07-17-2018	18:24:22
AC9 Absorption and Attenuation Meter
00000266		; Serial number
2	; structure version number
Reserved
0.000000	0.000000		; Depth calibration
19200			; Baud rate
0.100000			; Path length (meters)
31			; number of temperature calibration bins
				12.59339	13.44920	14.48425	15.49668	16.50852	17.49564	18.50545	19.52458	20.50176	21.48889	22.47318	23.48707	24.50962	25.49370	26.49784	27.51372	28.50746	29.47237	30.47938	31.50214	32.50470	33.49235	34.50337	35.50914	36.50618	37.52058	38.51018	39.51308	40.49994	41.49866	42.47204	; temperature bins
a650	Blue	20.34952		-0.00383	-0.00415	-0.00430	-0.00391	-0.00363	-0.00317	-0.00269	-0.00237	-0.00179	-0.00130	-0.00099	-0.00071	-0.00015	0.00000	0.00004	-0.00001	0.00015	0.00036	0.00058	0.00101	0.00161	0.00132	0.00160	0.00169	0.00242	0.00273	0.00336	0.00365	0.00427	0.00566	0.00670		; offset and temperature correction info
a676	Green	20.51193		-0.00398	-0.00384	-0.00360	-0.00306	-0.00302	-0.00255	-0.00235	-0.00212	-0.00163	-0.00136	-0.00118	-0.00089	-0.00029	0.00000	0.00068	0.00082	0.00099	0.00137	0.00145	0.00212	0.00260	0.00252	0.00321	0.00354	0.00457	0.00535	0.00617	0.00648	0.00742	0.00887	0.01002		; offset and temperature correction info
a715	Brown	20.23230		-0.00421	-0.00394	-0.00391	-0.00291	-0.00264	-0.00192	-0.00204	-0.00179	-0.00188	-0.00239	-0.00180	-0.00187	-0.00099	0.00000	0.00084	0.00162	0.00188	0.00224	0.00321	0.00381	0.00466	0.00528	0.00588	0.00696	0.00859	0.01041	0.01148	0.01282	0.01333	0.01456	0.01617		; offset and temperature correction info
c510	Red	20.40042		-0.00261	-0.00247	-0.00258	-0.00225	-0.00203	-0.00197	-0.00199	-0.00203	-0.00154	-0.00103	-0.00069	-0.00019	-0.00007	0.00000	0.00011	-0.00021	-0.00042	-0.00056	-0.00040	0.00011	0.00036	0.00050	0.00077	0.00079	0.00050	0.00042	0.00043	0.00092	0.00147	0.00200	0.00232		; offset and temperature correction info
c532	Magenta	20.40760		-0.00248	-0.00265	-0.00278	-0.00279	-0.00296	-0.00292	-0.00238	-0.00206	-0.00129	-0.00096	-0.00092	-0.00052	-0.00009	0.00000	0.00007	-0.00049	-0.00136	-0.00107	-0.00079	-0.00065	-0.00074	-0.00105	-0.00152	-0.00192	-0.00236	-0.00269	-0.00252	-0.00233	-0.00172	-0.00128	-0.00067		; offset and temperature correction info
c555	Black	20.50654		-0.00053	-0.00063	-0.00106	-0.00094	-0.00068	-0.00055	-0.00053	-0.00039	-0.00028	-0.00025	-0.00011	-0.00035	-0.00007	0.00000	-0.00037	-0.00055	-0.00036	-0.00014	0.00019	0.00044	0.00032	0.00040	0.00050	0.00028	0.00014	0.00013	0.00030	0.00073	0.00117	0.00176	0.00241		; offset and temperature correction info
a412	LtBlue	17.15231		-0.01972	-0.01823	-0.01612	-0.01381	-0.01272	-0.01080	-0.00959	-0.00866	-0.00710	-0.00532	-0.00354	-0.00148	-0.00028	0.00000	0.00176	0.00297	0.00394	0.00440	0.00453	0.00487	0.00804	0.00856	0.01065	0.01248	0.01388	0.01439	0.01659	0.01881	0.02256	0.02450	0.02719		; offset and temperature correction info
a440	LtGreen	18.00171		-0.00729	-0.00642	-0.00581	-0.00502	-0.00426	-0.00349	-0.00244	-0.00218	-0.00179	-0.00101	-0.00046	-0.00006	0.00036	0.00000	0.00040	0.00045	0.00030	-0.00015	-0.00024	-0.00035	0.00012	-0.00013	-0.00033	-0.00089	-0.00142	-0.00189	-0.00231	-0.00205	-0.00140	-0.00140	-0.00146		; offset and temperature correction info
a488	Yellow	18.86491		-0.00113	-0.00102	-0.00106	-0.00064	-0.00027	-0.00020	-0.00030	-0.00037	-0.00047	-0.00059	-0.00052	-0.00012	0.00008	0.00000	0.00025	0.00012	-0.00013	-0.00043	-0.00065	-0.00076	-0.00025	0.00010	0.00090	0.00111	0.00113	0.00104	0.00073	0.00068	0.00120	0.00186	0.00258		; offset and temperature correction info
c650	Blue	20.46075		-0.00145	-0.00097	-0.00092	-0.00139	-0.00185	-0.00196	-0.00237	-0.00266	-0.00238	-0.00163	-0.00083	-0.00041	-0.00010	0.00000	0.00005	-0.00001	0.00015	0.00034	0.00029	0.00065	0.00101	0.00164	0.00126	0.00156	0.00175	0.00270	0.00287	0.00371	0.00407	0.00473	0.00534		; offset and temperature correction info
c676	Green	20.10118		-0.00170	-0.00144	-0.00149	-0.00177	-0.00188	-0.00194	-0.00198	-0.00196	-0.00177	-0.00156	-0.00140	-0.00091	-0.00033	0.00000	0.00050	0.00092	0.00110	0.00141	0.00167	0.00199	0.00216	0.00265	0.00269	0.00289	0.00315	0.00374	0.00367	0.00408	0.00486	0.00561	0.00646		; offset and temperature correction info
c715	Brown	19.91219		-0.01201	-0.01097	-0.00859	-0.00680	-0.00651	-0.00592	-0.00535	-0.00440	-0.00387	-0.00303	-0.00222	-0.00153	-0.00028	0.00000	0.00093	0.00149	0.00247	0.00322	0.00330	0.00427	0.00373	0.00464	0.00536	0.00551	0.00643	0.00733	0.00779	0.00884	0.00899	0.01021	0.01120		; offset and temperature correction info
a510	Red	19.21192		0.00201	0.00193	0.00158	0.00098	0.00089	0.00049	0.00011	-0.00016	-0.00016	-0.00005	0.00028	0.00025	0.00006	0.00000	0.00035	-0.00022	-0.00023	-0.00080	-0.00144	-0.00154	-0.00153	-0.00204	-0.00220	-0.00219	-0.00190	-0.00128	-0.00069	-0.00018	0.00068	0.00152	0.00241		; offset and temperature correction info
a532	Magenta	19.41084		-0.00097	-0.00072	-0.00060	-0.00081	-0.00062	-0.00071	-0.00040	0.00020	0.00028	0.00043	0.00000	-0.00035	0.00007	0.00000	-0.00011	-0.00059	-0.00080	-0.00098	-0.00137	-0.00162	-0.00163	-0.00130	-0.00073	-0.00018	0.00090	0.00185	0.00175	0.00247	0.00291	0.00327	0.00349		; offset and temperature correction info
a555	Black	19.69776		0.00171	0.00183	0.00183	0.00186	0.00191	0.00170	0.00115	0.00131	0.00097	0.00073	0.00060	0.00013	0.00015	0.00000	0.00014	-0.00029	-0.00066	-0.00082	-0.00116	-0.00139	-0.00134	-0.00167	-0.00119	-0.00093	-0.00048	0.00053	0.00111	0.00095	0.00178	0.00206	0.00273		; offset and temperature correction info
c412	LtBlue	19.91180		-0.02051	-0.01853	-0.01589	-0.01311	-0.01059	-0.00877	-0.00705	-0.00581	-0.00413	-0.00231	-0.00098	-0.00066	-0.00011	0.00000	-0.00013	-0.00085	-0.00170	-0.00170	-0.00302	-0.00330	-0.00429	-0.00551	-0.00626	-0.00775	-0.00978	-0.01181	-0.01113	-0.01108	-0.01116	-0.01192	-0.01291		; offset and temperature correction info
c440	LtGreen	20.06241		-0.01064	-0.00992	-0.00892	-0.00766	-0.00639	-0.00531	-0.00478	-0.00384	-0.00287	-0.00187	-0.00102	-0.00063	-0.00023	0.00000	-0.00007	-0.00053	-0.00090	-0.00119	-0.00169	-0.00197	-0.00226	-0.00257	-0.00260	-0.00289	-0.00394	-0.00470	-0.00481	-0.00493	-0.00520	-0.00580	-0.00620		; offset and temperature correction info
c488	Yellow	20.35984		-0.01125	-0.01082	-0.00966	-0.00833	-0.00726	-0.00661	-0.00579	-0.00500	-0.00389	-0.00278	-0.00167	-0.00113	-0.00041	0.00000	0.00055	0.00121	0.00187	0.00226	0.00222	0.00251	0.00281	0.00359	0.00414	0.00427	0.00401	0.00404	0.00486	0.00563	0.00638	0.00684	0.00718		; offset and temperature correction info
0.003500	0.004000	0.015000	0.020000	0.015000	0.020000	2500.000000	2000.000000	1000.000000	; maxANoise	maxCNoise	maxADifference	maxCDifference	minACounts	minCCounts	minRCounts	maxTempSdev	maxDepthSdev
0			; auxilliary capabilities
1			; acquisition binsize
0	3.49019	3.69749	2.60724	16.11617	15.07209	14.29841	11.63709	9.08626	6.19446	12.00099	11.84418	10.70297	5.44253	4.58819	4.05044	22.97435	20.13036	16.90997	25.99	6.1	0.00	7.44	0.01273	0.01290	0.01666	0.00772	0.00575	0.00630	0.00468	0.01266	0.01686	0.00670	0.00682	0.00883	0.01490	0.01097	0.01197	0.00216	0.00612	0.00860
160	3.35790	3.64441	2.73026	15.98005	15.35236	14.49874	11.61101	9.14040	6.13278	12.10262	11.65551	10.64089	5.46481	4.74540	4.09133	22.90369	20.30682	17.51930
320	3.50842	3.81862	2.76305	16.17345	15.25732	14.45662	11.75973	9.36697	6.25055	12.35715	11.97134	10.89881	5.48179	4.76474	4.23597	23.33376	20.21474	17.40056
490	3.49932	3.81880	2.69707	16.13541	15.70787	14.38766	11.72334	9.29240	6.36774	12.27353	11.69484	10.62744	5.47099	4.72115	4.20692	23.05609	20.18719	17.53324
650	3.48556	3.63624	2.70183	16.01930	15.34435	14.55605	11.73837	9.34371	6.33687	12.40770	11.64721	10.77846	5.56410	4.91190	4.13899	22.75248	20.04250	17.10211
810	3.39068	3.62271	2.76364	16.10093	15.08713	14.38966	11.77050	9.11727	6.54109	12.16943	11.70786	10.57965	5.41764	4.65073	4.07622	23.11603	19.92789	16.96225
980	3.37131	3.60006	2.72064	15.89664	14.95082	14.08866	11.91136	9.10552	6.24300	11.86596	11.59388	10.54106	5.51053	4.75127	4.14947	22.62088	20.10910	16.78705
1140	3.48914	3.66516	2.72666	16.01352	15.19675	14.41781	11.61453	9.09706	6.18433	11.91208	11.70355	10.72634	5.35108	4.67017	4.08391	22.92943	19.74491	16.86026
1300	3.39508	3.59895	2.61803	16.03162	15.18438	14.51514	11.55216	9.00137	6.23429	12.23184	11.35439	10.51918	5.34037	4.53876	3.96960	23.09247	20.50517	17.13560
1470	3.33811	3.48857	2.56603	15.92786	14.98611	14.12896	11.69011	9.05979	6.08646	11.82481	11.30015	10.60145	5.35842	4.62482	4.17865	22.97922	19.80386	16.95682
1630	3.40787	3.66837	2.60486	16.42167	15.16181	14.01992	11.77942	9.01746	6.23939	11.90307	11.50760	10.32611	5.22551	4.57058	3.99678	22.57816	19.77727	16.84442	25.93	6.1	0.00	7.51	0.01273	0.01290	0.01666	0.00772	0.00575	0.00630	0.00468	0.01266	0.01686	0.00670	0.00682	0.00883	0.01490	0.01097	0.01197	0.00216	0.00612	0.00860
1790	3.38805	3.63923	2.58352	16.11875	15.12205	14.34151	11.65675	9.18257	6.10642	12.24802	11.78642	11.19545	5.43339	4.67735	4.13168	22.88707	20.23826	16.95820
1960	3.47384	3.72405	2.68315	16.11830	15.50207	14.40521	11.67573	9.19000	6.29252	12.10064	11.95525	10.88341	5.47694	4.67585	4.19185	23.16600	20.72997	17.39676
2120	3.47896	3.79393	2.69369	16.33036	15.24585	14.42882	11.70663	9.08162	6.22203	12.00977	11.63016	10.72670	5.37483	4.60222	4.06156	22.71350	19.94378	17.18115
2280	3.33149	3.57613	2.62736	16.05388	15.24795	14.37208	11.66168	9.23957	6.44709	12.00744	11.66187	10.56092	5.45408	4.74155	4.15474	23.15377	20.19229	17.11400
2450	3.53926	3.70881	2.71852	16.18835	15.33558	14.56814	11.66219	8.99518	6.19212	12.48748	11.89617	10.90990	5.31816	4.65094	4.15016	23.84073	20.56469	16.87749
2610	3.42962	3.67959	2.59041	16.08559	15.29232	14.50889	11.65139	8.98432	6.22449	12.02858	11.55450	10.72503	5.57320	4.73198	4.09597	23.16523	20.16904	17.32354
2780	3.63266	3.93046	2.74403	16.06814	15.10830	14.23883	11.95452	9.33330	6.36733	12.14926	11.94013	11.04204	5.59573	4.69078	4.16644	23.33444	20.22410	17.39578
2940	3.61105	3.90127	2.71763	16.56437	15.59120	14.60989	11.78798	9.35761	6.33201	12.35279	11.83513	10.98581	5.66273	4.90657	4.28799	23.30533	20.69723	17.31622
3100	3.81038	3.86849	2.84659	16.41804	15.37828	14.59428	11.87811	9.29763	6.35129	12.32102	12.07373	10.90394	5.49987	4.65658	4.21324	23.28790	20.67816	17.76167
3270	3.53218	3.71951	2.71134	16.24577	15.13490	14.42511	11.87045	9.32380	6.40804	12.47953	11.72431	10.93260	5.44947	4.77332	4.16058	23.45348	20.87953	17.57058	25.99	6.1	0.00	7.54	0.01273	0.01290	0.01665	0.00772	0.00574	0.00630	0.00468	0.01266	0.01686	0.00670	0.00682	0.00883	0.01490	0.01096	0.01197	0.00216	0.00612	0.00860
3430	3.63522	3.77077	2.67768	16.43601	15.36636	14.48775	11.76379	9.18096	6.27517	12.22548	11.87355	11.17915	5.42795	4.83368	4.21070	23.30235	20.41416	17.24498
3590	3.61054	3.78270	2.77473	16.48942	15.34551	14.55756	11.83223	9.37108	6.29837	12.17335	11.70998	10.83596	5.53020	4.71889	4.19665	23.00227	20.44943	17.30293
3760	3.55014	3.71418	2.68874	16.19217	15.60022	14.72797	11.80227	9.34969	6.44695	12.37834	11.99023	10.91009	5.70878	4.77543	4.21123	23.46687	20.72476	17.45103
3920	3.65209	3.88433	2.81962	16.31320	15.46588	14.76982	12.02962	9.47334	6.42172	12.51732	11.84675	11.09462	5.51872	4.77963	4.34352	23.46726	20.75123	17.74273
4090	3.55979	3.82084	2.90853	16.35759	15.37470	15.25923	12.09653	9.54732	6.57964	13.26851	12.16755	11.31028	5.53712	4.76472	4.23948	23.52020	20.85367	17.71172
4250	3.59427	3.81118	2.69205	16.40410	15.69401	14.51047	11.78692	9.59028	6.47674	12.43530	12.17202	11.19810	5.65747	4.86953	4.35128	23.28261	20.62826	17.61990
4410	3.53673	4.01568	2.77245	16.45968	15.79150	14.85001	11.95718	9.30964	6.37640	12.59609	11.93912	11.00775	5.53147	4.77034	4.20635	23.46805	20.89666	17.73739
4580	3.56023	3.72692	2.68211	16.58095	15.73346	14.80307	11.78045	9.23554	6.31846	12.26244	12.10259	11.39127	5.42934	4.66382	4.13776	23.20286	20.39814	17.42944
4740	3.52089	3.75569	2.69317	16.76237	16.06867	15.02120	11.81504	9.23880	6.31740	12.67511	12.08646	11.36615	5.76833	4.72488	4.28149	23.24863	20.40126	17.20495
4910	3.54474	3.76844	2.72851	16.46502	15.26017	14.58400	11.78684	9.20615	6.26836	12.25863	12.06395	11.04671	5.70397	4.82793	4.19871	23.19378	20.23782	17.18660	25.93	6.2	0.00	7.40	0.01273	0.01290	0.01665	0.00772	0.00574	0.00630	0.00468	0.01266	0.01686	0.00670	0.00682	0.00883	0.01490	0.01096	0.01197	0.00216	0.00612	0.00860
5070	3.67302	3.83199	2.78806	16.20779	15.28600	14.85540	11.90670	9.20162	6.29717	12.56778	11.77979	10.73572	5.41992	4.72111	4.17460	23.07635	20.15166	17.07751
5230	3.51062	3.78606	2.70256	16.01779	15.26904	14.33130	11.72751	9.17961	6.43350	12.02850	11.82322	10.92011	5.42267	4.73828	4.19625	23.32892	20.40595	17.50242
5400	3.51306	3.74803	2.73303	16.49488	15.30903	14.60793	11.79518	9.18571	6.34978	13.18693	11.96018	11.87526	5.49443	4.75293	4.17910	23.16430	20.35297	17.20201
5560	3.46199	3.64051	2.67114	16.21343	15.53873	14.52825	11.91794	9.32944	6.27762	12.01699	11.98884	10.95107	5.53164	4.72875	4.19281	23.43954	20.17311	17.29709
5730	3.49383	3.62393	2.69426	16.12165	15.44467	14.47481	11.66685	9.23703	6.38903	12.15278	11.75707	10.86147	5.42632	4.85622	4.14131	23.18228	20.10568	16.91566
5890	3.50604	3.79113	2.71511	15.88150	15.27357	14.68478	11.83573	9.35451	6.32789	12.15999	11.65349	10.66314	5.44888	4.76698	4.19001	23.06158	20.41321	16.92883
6060	3.57360	3.68926	2.69927	16.07087	15.12026	14.36532	11.64472	9.05102	6.26143	12.07588	11.63506	10.66400	5.44338	4.70062	4.13604	22.99294	19.88960	17.24857
6220	3.43195	3.72591	2.71855	16.07081	15.07256	14.38581	11.79079	9.20337	6.29052	12.19542	11.86906	10.84946	5.46266	4.68094	4.34738	22.85519	20.23901	17.19933
6380	3.49799	3.67082	2.80040	16.47216	15.18369	14.46204	11.87427	9.18862	6.38199	12.33655	11.73538	10.82147	5.69384	4.73870	4.20793	23.16162	19.99740	17.08980
6550	3.55615	3.71944	2.75976	16.08559	15.28977	14.42855	11.67654	9.15602	6.30177	12.12956	11.79606	10.93138	5.50263	4.79528	4.18821	23.21463	20.15815	17.11689	25.99	6.0	0.00	7.39	0.01273	0.01290	0.01665	0.00771	0.00574	0.00630	0.00468	0.01266	0.01686	0.00670	0.00682	0.00883	0.01490	0.01096	0.01198	0.00216	0.00612	0.00860
6710	3.48259	3.72301	2.74907	16.10347	15.05268	14.31884	11.74683	9.13734	6.36020	12.05749	11.95989	10.93865	5.41012	4.75245	4.16414	23.32204	20.61413	17.37071
6870	3.59011	3.75015	2.66498	16.21576	15.54358	14.51774	11.68612	9.07212	6.23008	12.48467	12.16227	10.92739	5.47402	4.73817	4.20969	22.99004	20.39446	17.33729
7040	3.59316	3.73933	2.67902	16.13842	15.34328	14.46767	11.81202	9.24142	6.35728	12.14930	11.80803	10.70148	5.56052	4.83613	4.20260	23.03901	20.31434	17.22625
7200	3.57299	3.79895	2.77567	15.94244	15.24787	14.44737	11.83924	9.17724	6.30431	12.23668	11.94259	10.85214	5.52536	4.78015	4.19417	23.36019	20.18040	17.39748
7360	3.60603	3.79812	2.73658	16.22049	15.60785	14.71378	11.78124	9.21593	6.26135	12.32574	12.13689	11.23093	5.38311	4.74897	4.15550	23.18815	20.47483	17.40243
7530	3.39718	3.70712	2.62694	16.47237	15.55782	14.54870	11.80008	9.29313	6.30184	12.35302	11.71289	10.95901	5.47176	4.72770	4.21931	23.23502	20.43492	17.37884
7690	3.59823	3.84705	2.76147	16.31139	15.82650	14.64602	12.00866	9.25848	6.36821	12.49060	12.09763	11.34327	5.60850	4.92590	4.30663	23.26665	20.41654	17.36588
7850	3.60761	3.69259	2.68349	16.37757	15.55258	14.64039	11.82121	9.42924	6.37663	12.65752	12.04808	10.92800	5.55302	4.84228	4.19840	23.53564	20.58156	17.51874
8020	3.66726	3.82958	2.75509	16.43166	15.56274	14.78285	11.84253	9.32756	6.35873	12.49088	11.99757	10.96845	5.50662	4.78708	4.20231	23.42003	21.01662	17.72504
8180	3.51057	3.76080	2.71389	16.48207	15.65240	14.82071	11.87772	9.39297	6.29961	12.38879	12.30599	11.03646	5.41705	4.80742	4.38663	23.58374	20.62660	17.27126	25.99	6.1	0.00	7.43	0.01273	0.01290	0.01665	0.00772	0.00574	0.00630	0.00468	0.01266	0.01686	0.00670	0.00682	0.00883	0.01490	0.01096	0.01198	0.00216	0.00612	0.00860
8340	3.60598	3.76552	2.73211	16.67827	15.54304	14.89855	11.76897	9.19794	6.34267	12.44625	12.02445	11.32699	5.40451	4.70727	4.15840	23.30695	20.65725	17.44252
8510	3.46956	3.76470	2.68742	16.30180	15.38752	14.60415	11.88441	9.24971	6.32718	12.15037	11.85945	10.98826	5.41557	4.80576	4.26495	22.98191	20.09336	17.06501
8670	3.56857	4.01138	2.82521	15.95538	15.13021	14.59132	11.85130	9.47787	6.50850	12.31455	11.78256	10.80393	5.64305	4.79564	4.17184	23.38716	20.87952	17.61429
8840	3.49911	3.74968	2.67594	16.29667	15.42521	14.43574	11.78378	9.26562	6.18005	12.20990	11.93322	10.93200	5.44508	4.86738	4.12490	23.11568	20.40488	17.60145
9000	3.52669	4.01150	2.82502	16.35749	15.53654	14.74798	11.91326	9.28862	6.34606	12.31065	11.96386	10.86851	5.50988	4.80810	4.27654	23.82666	20.85757	17.47878
9170	3.52578	3.95322	2.84971	16.58879	15.95343	14.95201	11.90707	9.23487	6.36412	12.53307	12.21217	11.18513	5.56739	4.74272	4.36623	23.62289	20.79691	17.54212
9330	3.61827	3.79835	2.70667	16.72925	15.55172	14.83223	11.84696	9.23644	6.42506	12.44390	12.05134	11.07532	5.70216	4.79014	4.31077	23.64693	20.67587	17.56448
9490	3.58174	3.93210	2.87044	16.90030	15.80447	15.09624	12.25486	9.40494	6.55674	12.54350	12.25959	11.05455	5.69236	4.91912	4.36721	23.71214	21.10296	17.78328
9660	3.55562	3.74445	2.81263	17.07190	16.20515	15.07820	12.07727	9.44024	6.40661	12.93552	12.55372	11.50070	5.58350	4.86464	4.33673	24.08820	21.10490	18.08463
9820	3.63070	3.83057	3.05968	17.26655	16.17383	15.57503	12.16496	9.55410	6.57398	13.06301	12.79176	11.69662	5.76007	4.99155	4.50712	24.35781	21.74521	18.28764	26.05	6.1	0.00	7.38	0.01273	0.01290	0.01665	0.00772	0.00574	0.00630	0.00468	0.01266	0.01686	0.00670	0.00682	0.00882	0.01490	0.01096	0.01197	0.00216	0.00612	0.00860
9990	3.85492	3.96305	2.92321	17.73758	16.73419	15.66616	12.33537	9.71394	6.86463	13.57164	13.33989	12.14570	6.10824	5.27503	4.60627	24.77237	22.25073	19.10975
10150	4.11434	4.10789	3.14062	18.08521	17.43941	16.60482	12.49234	10.00371	7.11964	14.12054	13.87571	12.86557	6.38997	5.52493	4.98901	25.69079	22.89885	19.75792
10320	4.29407	4.45695	3.38508	18.61639	17.70391	16.96120	12.80381	10.22613	7.24870	14.27671	14.11583	13.02804	6.40526	5.58306	5.02257	25.94745	23.25310	19.72814
10480	4.23031	4.40498	3.36717	18.58503	17.68263	16.67670	12.68246	10.28975	7.03909	14.11030	14.06741	12.90192	6.22065	5.50323	4.78025	25.51134	22.72518	19.79952
10650	4.12046	4.34480	3.29625	18.46368	17.71461	16.79818	12.60750	10.04678	7.04135	14.22084	13.95272	12.70339	6.18302	5.35571	4.64217	24.95903	22.38160	18.96912
10810	4.00519	4.24488	3.14528	18.20612	17.24157	16.30893	12.44204	9.87805	6.92303	13.80554	13.76476	12.41528	6.11721	5.29857	4.78379	25.26739	22.32333	19.31432
10970	3.94490	4.21690	3.10784	18.37730	17.25602	16.25316	12.39817	9.87364	6.81149	13.75883	13.41152	12.39917	6.10827	5.37570	4.66862	25.03062	22.18105	18.96797
11140	3.96827	4.19649	3.14857	18.04191	17.34401	16.24699	12.54015	9.92671	6.90254	13.81405	13.33127	12.44113	5.95095	5.16371	4.58394	25.49107	22.34875	19.40401
11300	3.85692	4.09465	3.01923	18.13270	17.06286	16.29943	12.32609	9.79319	6.81732	13.48177	13.30416	12.13406	5.95365	5.22883	4.62404	25.13713	22.20322	18.72080
11460	3.93971	4.06622	3.02461	17.63099	16.85044	15.97683	12.36175	9.81271	6.86419	13.56317	13.25508	12.05264	5.88391	5.21359	4.61500	25.03145	21.91252	18.68201	25.99	6.1	0.00	7.36	0.01273	0.01290	0.01665	0.00771	0.00574	0.00630	0.00468	0.01266	0.01686	0.00670	0.00682	0.00882	0.01490	0.01096	0.01197	0.00216	0.00612	0.00860
11630	3.93027	4.12993	3.09340	17.98329	16.98690	16.09082	12.34378	9.85669	6.85483	13.65253	13.36322	12.19862	5.98256	5.19880	4.57358	24.77257	22.11303	18.92857
11790	3.91052	4.03802	3.02096	17.95705	16.76962	15.76480	12.20354	9.78000	6.72251	13.36140	13.27459	12.04997	5.91823	5.21139	4.59546	24.74073	21.81445	18.79413
11950	3.84568	4.05730	3.02743	17.51262	16.55908	15.62399	12.15051	9.68582	6.70123	13.06733	12.57855	11.56350	5.71832	5.10875	4.32834	24.20935	21.21179	18.20250
12120	3.72043	3.94130	2.99950	17.19451	16.25793	15.61448	12.58230	9.48719	6.53753	13.27824	12.80875	11.81259	5.70571	4.92795	4.39793	24.22082	21.34941	18.15568
12280	3.92578	4.07645	2.93624	17.18426	16.20148	15.40816	12.11428	9.57142	6.59330	12.94666	12.65167	11.56725	5.82431	4.88451	4.40810	24.15347	21.44033	18.40329
12440	3.71343	4.06357	2.88782	17.59562	16.49832	15.49407	12.15421	9.60097	6.54317	13.21760	12.98827	12.36574	5.76986	5.06294	4.39018	24.78830	21.85503	18.53908
12610	3.69604	3.89642	2.93929	17.05752	16.17766	15.29766	12.11174	9.55771	6.51212	13.30165	12.86898	11.60315	5.73204	4.99166	4.50124	24.22294	21.93504	18.25387
12770	3.87190	3.84006	2.83454	17.58459	16.49221	15.48285	12.08762	9.42832	6.67755	12.81748	12.76192	11.77522	5.84417	4.94222	4.40715	23.93838	21.20524	18.11561
12930	3.77875	4.00820	2.92096	17.09454	16.21662	15.38705	12.03634	9.55287	6.57733	13.13048	12.58258	11.57391	5.64063	4.98021	4.48915	24.11807	21.25372	18.25022
13100	3.67974	4.06549	2.85287	17.28321	15.89169	15.10744	11.96398	9.50382	6.63078	12.94196	12.65128	11.64620	5.81322	4.98659	4.38588	24.16972	21.31284	18.44915	25.99	6.1	0.00	7.36	0.01273	0.01290	0.01665	0.00771	0.00574	0.00630	0.00468	0.01266	0.01686	0.00670	0.00682	0.00882	0.01490	0.01096	0.01197	0.00216	0.00612	0.00860
13260	3.68398	3.87996	2.84218	16.92607	16.20395	15.56313	12.03654	9.49770	6.48331	13.27466	12.70690	11.62524	5.77521	4.92775	4.36584	23.94264	21.39463	18.31435
13420	3.63469	3.94884	2.86838	17.31034	16.36139	15.57479	11.89910	9.53038	6.50438	13.32963	12.64082	11.77001	5.77081	5.01339	4.54878	24.23890	21.53278	18.50744
13590	3.74177	3.98758	2.99870	17.37465	16.26047	15.40004	12.18504	9.56805	6.89465	13.13024	12.62798	11.55411	5.84429	5.19524	4.54151	24.48074	21.72196	18.54414
13750	3.87461	4.06689	3.01080	17.49151	16.76014	15.80229	12.28854	9.57659	6.66378	13.63957	13.28154	12.00749	5.92792	5.03350	4.55006	25.39004	21.74890	18.91916
13910	3.87753	4.11406	2.94757	18.08859	16.78525	15.90093	12.23857	9.74616	7.36294	13.46195	12.93038	11.92810	5.93625	5.11995	4.56091	24.63242	21.70702	18.80589
14080	3.80502	4.09777	2.96834	17.77079	16.58742	15.98254	12.25939	9.55550	6.69379	13.31216	13.14754	12.07918	5.80115	4.97730	4.39204	24.68884	21.86311	18.72357
14240	3.75737	4.15741	2.92475	17.59644	16.70582	15.90134	12.23810	9.80822	6.80087	13.57317	13.24513	12.24826	5.87017	5.09131	4.53510	24.41897	21.78459	18.63404
14410	3.93480	3.98998	2.95976	17.71181	16.73417	15.84647	12.15093	9.70309	6.57525	13.47574	13.03902	12.60911	5.77963	4.93241	4.46542	24.61914	21.73082	19.00409
14570	3.75562	4.05237	2.90477	17.35605	16.13291	15.52162	12.07417	9.32796	6.44509	13.07950	12.77825	11.83191	5.61477	4.87371	4.28891	24.63818	21.68913	18.33420
14730	3.67298	3.98455	2.85223	17.13179	16.37947	15.47836	12.09811	9.43489	6.47506	13.02568	12.80069	11.57795	5.60400	4.84281	4.23682	24.04459	21.18620	18.21021	26.05	5.9	0.00	7.38	0.01273	0.01290	0.01665	0.00771	0.00574	0.00630	0.00468	0.01266	0.01686	0.00670	0.00681	0.00882	0.01490	0.01096	0.01197	0.00216	0.00612	0.00860
14900	3.62945	3.98959	2.81920	17.11826	16.12445	15.38820	12.06567	9.53181	6.61486	13.04987	12.62661	11.48717	5.67350	4.96009	4.36960	24.99272	21.69050	18.30358
15060	3.77513	4.01207	2.83246	17.39277	16.53909	15.72690	12.07210	9.55961	6.66029	13.29188	12.87583	11.76702	5.99153	5.15338	4.44436	24.58691	21.84969	18.60420
15220	3.90394	4.14157	2.91788	17.58187	17.08625	16.22346	12.28184	9.95709	6.85277	13.30353	12.94435	11.97539	5.93143	5.10175	4.43493	24.85773	21.81656	18.64733
15390	3.76835	3.97644	2.86515	17.58683	16.62395	15.62879	12.12888	9.69274	6.78287	13.30736	13.22117	12.02559	5.99342	5.04057	4.57065	24.84234	21.88142	18.66827
15550	3.70255	3.97570	2.84715	17.69448	16.87755	15.84827	11.98810	9.57600	6.55306	13.40588	13.13455	11.87647	5.73494	4.93135	4.51315	24.70265	21.94940	18.70175
15720	3.80381	4.04997	2.93896	17.60568	16.67055	15.77552	12.21121	9.63985	6.63118	13.92740	12.91578	11.72349	5.73448	4.93990	4.47152	24.79856	21.80380	18.40604
15880	3.81884	3.85581	2.96299	17.49632	16.57157	15.93933	12.31397	9.64397	6.66413	13.28888	12.74537	11.62463	5.94202	5.06678	4.52073	24.67993	21.61640	19.09106
16050	3.73659	3.91830	3.01076	17.16388	16.60670	15.59054	12.24919	9.56388	6.64146	13.48021	12.42839	11.35040	5.73533	5.03303	4.38702	24.30650	21.56590	18.12624
16210	3.76734	3.99801	2.85941	17.41086	16.68606	15.98623	12.12657	9.46153	6.59590	13.19124	12.50781	11.53883	5.75820	5.04869	4.53441	24.25988	21.67413	18.43464
16370	3.84781	4.18094	2.79530	17.33444	16.37508	15.38291	12.17826	9.56555	6.60170	13.14648	12.43037	11.50343	5.85796	4.93458	4.42008	24.30441	21.53322	18.07956	25.99	6.1	0.00	7.38	0.01273	0.01290	0.01665	0.00771	0.00574	0.00630	0.00468	0.01266	0.01686	0.00670	0.00682	0.00882	0.01490	0.01096	0.01197	0.00216	0.00612	0.00860
16540	3.72588	3.93839	2.91976	17.03564	16.04800	15.08712	12.12505	9.42293	6.40070	13.01668	12.47310	11.50727	5.59910	4.88814	4.40339	24.09611	21.28778	18.36338
16700	3.82058	4.10308	2.79194	16.83096	16.19143	15.20699	11.92470	9.31115	6.37637	12.97307	12.54223	11.27826	5.64060	4.96224	4.33656	23.58859	21.15325	17.76836
16870	3.68512	3.92654	2.76825	16.72500	15.82225	14.88664	11.94821	9.49368	6.52869	12.70749	12.35733	11.26251	5.76687	4.85778	4.28397	23.80645	20.82981	17.66620
17030	3.51682	3.83574	2.73246	16.70080	15.66944	14.78284	11.96245	9.19950	6.25650	12.66039	12.34238	11.16536	5.54468	4.79007	4.25082	23.73654	20.70802	17.38851
17190	3.53514	3.77932	2.75653	16.28847	15.44137	14.38835	11.92492	9.21486	6.29661	12.15685	11.72875	11.24271	5.50884	5.08500	4.40596	23.66953	21.06489	17.72900
17360	3.52349	3.73360	2.74527	16.30005	15.52185	14.57743	11.86372	9.32495	6.23721	12.28332	11.92898	10.95336	5.36075	4.72173	4.19235	23.00909	20.03501	17.00757
17520	3.48588	3.70485	2.66271	16.07329	15.30531	14.48982	11.79701	9.16428	6.12959	12.14821	11.89601	10.81020	5.34780	4.80934	4.09426	23.05893	20.04736	17.02097
17680	3.44832	3.68015	2.64192	15.74980	15.15872	14.32035	11.67284	9.04994	6.08897	11.85493	11.54861	10.68430	5.30295	4.59349	4.10764	23.05628	20.23666	17.21553
17850	3.38789	3.63610	2.61069	16.00859	15.05653	14.72813	11.72695	9.11622	6.20005	12.31518	11.78837	10.86615	5.53766	4.64311	4.13051	23.73937	20.67669	17.28488
18010	3.48983	3.72750	2.68805	16.16459	15.52382	14.60481	11.80529	9.09311	6.29284	12.06162	12.04626	10.84951	5.63679	4.93968	4.23249	23.46828	20.20086	17.14880	26.05	6.1	0.00	7.47	0.01273	0.01290	0.01665	0.00771	0.00574	0.00630	0.00468	0.01266	0.01686	0.00670	0.00682	0.00882	0.01490	0.01096	0.01197	0.00216	0.00612	0.00860
18170	3.45091	3.76881	2.68179	16.32762	15.60637	14.42833	11.72622	9.21759	6.27810	12.39128	11.93767	10.81991	5.60050	4.70011	4.06195	23.73899	20.06976	16.98438
18330	3.52203	3.75603	2.62393	16.07626	15.43866	14.51675	11.74311	9.11309	6.26269	12.20877	11.80417	10.71776	5.51609	4.79483	4.14398	23.12738	20.12774	17.08853
18500	3.47003	3.65526	2.63819	15.99173	15.69964	14.97565	11.70935	9.18913	6.17197	12.07885	11.95020	10.96453	5.63532	4.66749	4.18521	23.69208	20.56744	17.43897
18660	3.48313	3.65960	2.64068	15.92884	15.03016	14.48665	11.59941	9.03136	6.33568	12.13978	11.80565	11.13666	5.49548	4.66598	4.26803	22.94827	20.12587	17.08588
18830	3.41023	3.75851	2.69186	16.51512	15.58219	14.66280	11.79045	9.33271	6.26531	12.20698	11.71807	10.84162	5.43970	4.70251	4.16799	22.94340	19.89302	16.78748
18990	3.45403	3.65866	2.78054	15.65748	14.99797	14.32156	11.64343	9.13451	6.20505	11.84243	11.51615	10.42845	5.46270	4.59118	4.21601	22.51475	19.76568	16.88346
19150	3.40755	3.59500	2.57588	16.74736	15.28311	14.22065	11.61155	9.17340	6.20483	12.18704	11.91971	10.81371	5.36077	4.66989	4.03386	22.55788	19.86795	16.79956
19320	3.42767	3.66936	2.67528	15.78157	15.07256	14.40811	11.52775	9.05953	6.15509	12.13425	11.63485	10.78075	5.40579	4.61649	4.16319	22.67453	19.98027	17.17686
19480	3.47419	3.66537	2.71934	15.91734	15.31218	14.40328	11.72303	9.28966	6.32799	12.00345	11.75091	11.38577	5.45168	4.75921	4.22020	23.11748	20.30013	16.85104
19650	3.50670	3.62781	2.66526	15.79681	15.07105	14.06819	11.59328	9.01633	6.27152	12.25827	11.81233	10.66295	5.33197	4.73854	4.08064	22.99382	19.98017	16.73321	26.05	6.1	0.00	7.43	0.01273	0.01290	0.01665	0.00771	0.00574	0.00630	0.00468	0.01266	0.01686	0.00670	0.00682	0.00882	0.01490	0.01096	0.01197	0.00216	0.00612	0.00860
19810	3.38705	3.64458	2.64968	16.37346	15.22749	14.33802	11.64279	9.19229	6.16628	12.12252	11.54714	10.63488	5.36328	4.69197	4.05151	22.65509	19.87502	17.18369
19970	3.43684	3.61789	2.67139	15.98665	14.97241	14.41495	11.59357	9.04557	6.15896	11.91015	11.39240	10.57376	5.41861	4.55412	4.05551	22.63620	19.52653	16.81709
20140	3.47625	3.74316	2.67641	15.78594	14.92636	13.86224	11.48328	9.00148	6.05214	11.88415	11.31587	10.48863	5.23156	4.63848	4.03181	22.83708	20.18162	16.71162
20300	3.52160	3.73461	2.65037	15.81286	15.28427	14.10329	11.84285	9.03260	6.22547	11.89185	11.47492	10.29892	5.26692	4.64089	4.04024	22.46779	20.05933	16.88696
20470	3.42005	3.70953	2.66425	15.63408	14.94677	14.16040	11.63083	8.99256	6.04242	11.73382	11.21353	10.41631	5.39376	4.62419	4.11908	22.94018	20.14885	16.70084
20630	3.48704	3.75486	2.66695	16.13668	15.05493	13.93382	11.70066	9.02036	6.04518	11.76434	11.49790	10.66579	5.26284	4.50930	4.03299	22.85413	19.87779	17.01468
20790	3.40520	3.63499	2.59700	16.11039	14.73090	14.10628	11.72165	9.05300	6.18623	12.28565	11.52197	10.98886	5.37906	4.61025	4.10785	22.84820	20.10257	17.17259
20960	3.46801	3.66995	2.58442	16.11754	14.88530	14.22335	11.77671	9.03754	6.08738	12.35175	11.52568	10.68067	5.27619	4.63241	4.07507	23.05834	20.37062	17.00198
21120	3.41536	3.69817	2.64090	16.24205	15.31422	14.22925	11.61251	9.17614	6.23846	12.13342	11.65831	10.75055	5.42679	4.71505	4.13577	22.76918	20.14423	17.15718
21280	3.50962	3.70241	2.76185	15.91539	15.30022	14.18600	11.90183	9.17077	6.34805	11.96727	11.71259	10.74082	5.52232	4.69535	4.17809	23.24337	20.42213	17.45868	26.05	6.2	0.00	7.38	0.01273	0.01290	0.01665	0.00771	0.00574	0.00630	0.00468	0.01266	0.01686	0.00670	0.00682	0.00882	0.01490	0.01096	0.01197	0.00216	0.00612	0.00860
21450	3.49575	3.68673	2.80059	16.55319	15.55325	14.59471	11.93927	9.79527	6.38585	12.32645	11.93356	10.94810	5.74773	4.88692	4.29845	23.27659	20.57418	17.43578
21610	3.69356	3.91092	2.86311	16.42647	15.80139	14.78987	11.90756	9.36614	6.41056	12.68365	11.98515	11.37093	5.63902	4.85225	4.27448	23.42907	20.52059	17.34684
21770	3.63662	3.80482	2.87362	16.64331	15.50420	14.74403	12.01198	9.31134	6.36586	12.22572	11.96157	11.01672	5.43397	5.02828	4.21571	23.48186	20.31654	17.45661
21940	3.51748	3.88298	2.71579	16.52195	15.40606	14.65072	11.82819	9.15174	6.29690	12.22709	12.02515	10.78809	5.38252	4.66802	4.17361	23.07508	20.16528	17.14119
22100	3.42674	3.69258	2.66278	16.10999	14.97586	14.34308	11.62351	9.11903	6.37597	12.13331	11.59792	10.81558	5.38650	4.72915	4.18323	22.76072	19.92408	16.99070
22260	3.46150	3.87704	2.66136	16.01047	15.30184	14.73595	11.58388	8.97746	6.21815	11.81641	11.60528	10.70487	5.32487	4.61185	4.10001	22.93123	19.91169	16.86071
22430	3.46444	3.70412	2.65349	15.75800	14.94763	14.18881	11.47586	9.02297	6.12606	11.87772	11.46259	10.59622	5.47571	4.72563	4.18724	22.66343	20.12735	17.28276
22590	3.46878	3.62933	2.67656	16.14063	15.20035	14.17921	11.70459	9.15414	6.26520	12.07502	12.05945	11.06774	5.46850	4.68718	4.19557	22.90659	20.17769	17.09431
22750	3.57440	4.22890	2.87025	16.28053	15.37214	14.60745	11.77568	9.39296	6.59158	12.48523	11.76359	10.89540	5.59494	4.78253	4.28693	23.22680	20.40720	17.23760
22920	3.57415	3.82338	2.82102	16.28238	15.29984	14.49768	11.97992	9.18244	6.23628	12.18248	11.93852	11.04672	5.56596	4.85221	4.29989	23.43545	20.41911	17.16267	26.05	6.2	0.00	7.47	0.01273	0.01290	0.01665	0.00772	0.00574	0.00630	0.00468	0.01266	0.01686	0.00670	0.00682	0.00882	0.01490	0.01096	0.01197	0.00216	0.00612	0.00860
23080	3.73691	3.80316	2.78071	16.20326	15.50355	14.30344	11.82489	9.34294	6.25753	12.16306	11.64478	10.71201	5.61361	4.68678	4.48621	22.97536	20.33658	17.13632
23250	3.55285	3.74408	2.79535	16.30015	15.44291	14.59327	11.82893	9.13383	6.31905	12.25705	11.95578	10.79448	5.42396	4.77945	4.18454	23.14571	20.25353	17.25654
23410	3.53257	3.82643	2.80097	16.07727	15.44253	14.53546	11.68467	9.12130	6.33343	12.30758	12.23793	11.31992	5.55850	4.86256	4.26839	23.45749	20.46870	17.55442
23580	3.64435	3.85171	2.82673	16.47111	15.61231	14.62990	11.99732	9.60390	6.56677	12.37247	12.18732	11.03198	5.58833	4.86481	4.34110	23.52467	20.54661	17.83681
23740	3.72349	3.92607	2.84593	16.58767	15.60557	14.70763	11.98645	9.33559	6.56333	12.47377	11.87414	10.68982	5.45548	4.81166	4.19355	23.34157	20.50997	17.42097
23900	3.73112	3.80403	2.80628	16.24208	15.43451	14.77770	11.79936	9.31388	6.30978	12.24311	12.12967	11.12463	5.46518	4.76282	4.29084	23.36106	20.83391	17.25537
24070	3.51961	3.64901	2.66239	16.42604	15.28124	14.56764	11.74063	9.16394	6.33369	12.24159	12.12085	10.70619	5.49722	4.72575	4.32374	23.23969	20.20865	17.10242
24230	3.66441	3.67015	2.68928	16.18034	15.36394	14.20814	11.68173	9.20953	6.31518	11.97633	11.52772	10.86129	5.36970	4.61960	4.15050	23.05677	20.11020	17.27985
24400	3.44866	3.76102	2.72769	15.99225	15.38069	14.14309	11.73752	9.07750	6.23087	12.02986	11.74596	10.91261	5.49560	4.83551	4.18766	23.12893	20.52812	17.43111
24560	3.54603	3.69430	2.66551	16.31524	15.29625	14.38590	11.73976	9.11533	6.19314	12.15918	12.00424	10.95898	5.41231	4.74359	4.10893	22.97319	20.03822	16.91386	26.05	6.0	0.00	7.48	0.01273	0.01290	0.01665	0.00771	0.00574	0.00630	0.00468	0.01266	0.01686	0.00670	0.00682	0.00882	0.01490	0.01096	0.01197	0.00216	0.00612	0.00860
24720	3.40883	3.64251	2.72362	15.83160	14.94032	14.54088	11.71163	9.19560	6.14343	11.88663	11.48231	10.84613	5.25573	4.62370	4.09879	22.94284	20.09416	17.33916
24890	3.41414	3.62102	2.67926	15.90851	15.19858	14.12675	11.71947	9.12928	6.31885	12.35994	11.89381	10.56132	5.28058	4.54171	4.06660	22.39829	19.68891	16.75775
25050	3.32645	3.62843	2.50419	15.91981	14.93473	13.95209	11.49332	8.95834	6.06601	11.97621	11.42343	10.43822	5.31681	4.59861	3.98385	22.46833	19.71569	16.59046
25210	3.40701	3.60795	2.62515	15.76163	15.04768	14.25767	11.46479	9.13337	6.10877	11.54706	11.35790	10.53966	5.38645	4.62778	3.99989	22.49941	19.68900	16.76432
25380	3.34022	3.62018	2.51934	15.85633	14.89089	13.89371	11.66672	9.09239	6.07524	11.93380	11.42343	10.34268	5.24763	4.61316	4.14148	22.61097	19.91950	16.73436
25540	3.39393	3.60917	2.59756	15.55425	14.91704	14.20090	11.37241	8.79111	6.24875	11.85750	11.36680	10.45686	5.26963	4.57339	4.04210	22.52593	19.81508	16.68172
25700	3.36347	3.60312	2.49062	15.85790	14.83136	13.88000	11.61820	9.09403	6.00164	11.63562	11.17965	10.44163	5.36748	4.52471	4.09862	22.78142	19.76077	16.71388
25870	3.43338	3.61948	2.61926	15.87322	14.89537	14.12251	11.72628	9.04414	6.04931	12.00817	11.87474	10.79614	5.30027	4.63598	4.11777	23.61833	20.19671	16.99352
26030	3.63854	3.71470	2.83153	16.10850	15.28344	14.36290	11.64746	9.10461	6.29018	12.64223	11.66616	10.57494	5.39905	4.74835	4.18653	22.69018	19.99459	16.93024
26200	3.51120	3.96362	2.65206	16.31323	15.02333	14.40081	11.65090	9.17483	6.14874	12.14859	11.75202	10.62891	5.38182	4.68061	4.08726	22.68726	20.07278	16.82177	26.05	6.1	0.00	7.36	0.01273	0.01290	0.01665	0.00771	0.00574	0.00630	0.00468	0.01266	0.01686	0.00670	0.00682	0.00882	0.01490	0.01096	0.01197	0.00216	0.00612	0.00860
26360	3.44528	3.72815	2.69251	16.05817	15.11802	14.26118	11.72774	9.07130	6.24105	12.13353	11.78527	10.56541	5.41638	4.71501	4.12166	22.78510	19.79596	16.78160
26520	3.46041	3.99883	2.70222	15.90835	14.97590	14.23866	11.84674	9.17717	6.37612	11.87649	11.49715	10.88653	5.95249	4.92824	4.32986	23.18709	20.34615	16.98518
26690	3.46493	3.72218	2.55774	16.13877	15.00705	13.95284	11.67812	8.96489	6.14645	11.74800	11.41616	10.47423	5.28968	4.53726	4.11817	22.46976	19.80213	16.84804
26850	3.42268	3.61810	2.65151	15.98710	15.03873	14.18814	11.50664	9.09048	6.14010	11.91267	11.76409	10.57314	5.43283	4.61544	4.09351	22.77627	20.12980	16.70491
27010	3.46696	3.63638	2.60351	15.76566	15.14012	14.07950	11.52287	9.05602	6.16477	11.85577	11.24854	10.82917	5.26890	4.65230	4.11160	22.71940	19.78913	16.90231
27180	3.41086	3.68814	2.60996	15.86938	15.01425	14.59231	11.73470	9.00386	6.13930	11.66065	11.56256	10.81798	5.40923	4.60545	4.15558	22.91109	19.87090	16.80509
27340	3.39950	3.61969	2.61246	16.27716	15.48019	14.44896	11.66369	9.03627	6.13743	11.84423	11.49149	10.80089	5.23293	4.70502	4.03878	22.61315	20.12333	16.96650
27510	3.35662	3.57805	2.68787	15.72869	15.02018	14.22629	11.69832	9.09919	6.24452	11.81350	11.39648	10.54948	5.52168	4.64952	4.05045	22.75201	20.00910	17.34935
27670	3.47912	3.65480	2.60497	16.15685	15.09915	14.27274	11.48393	9.10526	6.23631	12.03587	11.68322	10.66271	5.36055	4.76397	4.18044	22.79394	20.07054	17.07284
27830	3.37884	3.69357	2.65462	16.09425	15.20256	14.33571	11.82164	9.37006	6.39153	11.96476	12.02139	10.76782	5.49942	4.64617	4.09967	22.89946	20.21839	16.94872	26.05	6.1	0.00	7.33	0.01273	0.01290	0.01665	0.00771	0.00574	0.00630	0.00468	0.01266	0.01686	0.00670	0.00682	0.00882	0.01490	0.01096	0.01197	0.00216	0.00612	0.00860
28000	3.41075	3.65981	2.58370	15.99419	15.22886	14.45164	11.70706	8.96665	6.03872	11.89955	11.51553	10.46452	5.44362	4.68925	4.24145	22.72443	19.98094	17.12400
28160	3.43054	3.55706	2.57268	16.15785	15.16293	14.31439	11.56315	9.06740	6.25495	11.95791	11.48759	10.61192	5.33860	4.69044	4.21320	22.90020	20.10033	17.14605
28330	3.57116	3.70214	2.65320	16.42590	15.55718	14.57348	11.60599	9.05643	6.16023	12.10606	11.93571	10.94508	5.41840	4.66574	4.12677	23.17286	20.60758	17.07147
28490	3.41027	3.74705	2.66802	16.22124	15.89637	14.56643	11.73703	9.38654	6.35063	12.21397	11.95911	10.86527	5.35294	4.74380	4.19672	23.08595	20.17996	16.98160
28650	3.48540	3.70955	2.70594	15.95572	15.31436	14.37760	11.69731	9.27641	6.24896	11.83480	11.46114	10.81893	5.44937	4.71766	4.24182	22.96711	20.11109	16.86214
28820	3.51121	3.70695	2.70771	15.99638	15.03610	14.15877	11.75015	9.24818	6.29308	12.22868	11.57997	11.03099	5.47125	4.84971	4.16192	22.81969	20.15112	17.10736
28980	3.63104	3.77377	2.69516	15.99350	15.32547	14.25943	11.72829	9.27366	6.66410	12.40129	11.89707	10.85986	5.43125	4.73217	4.24167	22.79201	20.53071	17.21243
29150	3.46402	3.69918	2.69239	16.46283	15.49032	14.39448	11.67962	9.07990	6.17483	11.90212	11.45668	10.57483	5.58628	4.74396	4.07055	22.76404	20.01172	17.39270
29310	3.48914	3.77677	2.63798	16.37994	15.03186	14.08398	11.63844	9.05787	6.15674	12.83897	11.69910	10.77113	5.31308	4.69008	4.13721	22.83300	19.91082	16.91457
29470	3.53683	3.70824	2.62712	15.83170	14.97034	14.32289	11.68380	9.03393	6.11377	11.84104	11.32253	10.41984	5.32166	4.65655	4.04551	22.90935	19.87938	17.11492	26.05	6.1	0.00	7.40	0.01273	0.01290	0.01665	0.00771	0.00574	0.00630	0.00468	0.01266	0.01686	0.00670	0.00682	0.00882	0.01490	0.01096	0.01197	0.00216	0.00612	0.00860
29640	3.44967	3.73147	2.68216	15.82906	15.04819	14.00301	11.54947	9.16817	6.15836	11.84356	11.60055	10.63680	5.41397	4.58835	4.12010	22.81655	19.94080	17.30353
29800	3.37837	3.66504	2.59290	15.95033	15.36352	14.21020	11.58166	8.98026	6.09343	11.87333	11.53307	10.47724	5.27038	4.56737	4.13654	22.73119	20.03967	17.03480
29970	3.47056	3.63396	2.67468	16.02568	15.31389	14.65998	11.62399	9.04715	6.26400	12.14765	11.62902	10.56096	5.38387	4.75043	4.16518	22.96208	19.96586	16.82657
30130	3.48239	3.74390	2.73223	15.75697	14.93090	13.75326	11.53813	9.21956	6.24889	11.73548	11.46697	10.39761	5.52576	4.68063	4.13295	22.63712	19.93994	16.93984
30290	3.42646	3.64943	2.65413	15.94766	15.01491	14.09856	11.63961	9.01699	6.19502	11.95841	11.50798	10.60366	5.51242	4.81791	4.32581	22.81286	19.79639	16.90047
30460	3.55446	3.66864	2.64981	15.82158	14.78452	13.99373	11.59502	9.04965	6.16952	11.84465	11.68592	10.42865	5.32904	4.61963	4.02887	23.04566	19.87240	16.84060
30620	3.38246	3.66467	2.62978	16.20849	14.93726	13.90778	11.64621	9.15013	6.22535	11.87069	11.61450	10.54207	5.29535	4.63245	4.13421	23.06382	19.77620	16.79686
30790	3.47209	3.62899	2.60979	15.76819	15.04024	13.99329	11.50282	9.06625	6.03210	11.86500	11.52087	10.43072	5.30288	4.59676	3.96311	22.30166	19.86877	16.51826
30950	3.37379	3.63727	2.58363	15.62534	14.65279	13.93501	11.54373	8.97709	6.27469	11.59946	11.33886	10.36183	5.34806	4.66796	4.09670	22.61790	19.74415	16.73100
31110	3.42174	3.58730	2.61592	15.69503	14.84313	14.05766	11.49331	9.09699	6.02103	11.75465	11.42560	10.45716	5.32530	4.61706	4.08119	22.29348	19.42228	16.79345	26.05	5.9	0.00	7.41	0.01273	0.01290	0.01665	0.00771	0.00574	0.00630	0.00468	0.01266	0.01686	0.00670	0.00682	0.00882	0.01490	0.01096	0.01197	0.00216	0.00612	0.00860
31280	3.31542	3.51159	2.54962	15.65923	14.75389	13.84967	11.51024	8.92570	6.13500	11.79910	11.23121	10.35774	5.29266	4.60763	4.05881	22.48434	19.70114	16.60487
31440	3.32245	3.66791	2.56229	15.52079	14.82174	13.86095	11.52401	8.94807	6.04515	11.68614	11.56510	10.59939	5.28956	4.56239	4.11832	22.43762	19.42977	16.70776
31600	3.45184	3.70114	2.70435	15.42419	14.52770	13.73943	11.56530	8.91818	6.21299	11.77302	11.58415	10.75305	5.30828	4.61509	4.05212	22.16766	19.67233	16.60425
31770	3.39778	3.64764	2.65794	15.30737	14.64779	14.10578	11.56035	8.94603	6.07416	11.69517	11.26714	10.38155	5.29505	4.49582	4.15059	22.48220	19.59689	16.39811
31930	3.36935	3.53551	2.57751	15.53175	15.15104	14.04839	11.52220	8.85761	6.17804	11.91040	11.53246	10.70370	5.32886	4.66077	4.10508	22.54998	19.98190	16.62428
32090	3.40530	3.58484	2.66930	15.23104	14.64674	13.87449	11.59645	8.99345	6.19740	11.61009	11.13452	10.50713	5.23825	4.49255	3.97662	23.38258	20.27745	16.65267
32260	3.39974	3.57434	2.60177	15.73217	15.20936	14.45168	11.51495	9.12660	6.19922	11.77444	11.17945	10.41680	5.34676	4.78164	4.13730	22.49973	19.43554	16.41511
32420	3.43750	3.61884	2.63116	15.60090	14.86469	14.12985	11.54703	8.95264	6.12150	11.68951	11.23517	10.45378	5.46721	4.65809	4.13259	22.45828	19.64369	16.80035
32580	3.47519	3.75460	2.60365	15.52696	14.69522	14.00597	11.54653	9.00107	6.19987	11.59513	11.20280	10.39492	5.48898	4.61693	4.13755	22.50152	19.67926	16.49295
32750	3.39637	3.71310	2.59049	15.59061	14.81834	13.97863	11.72823	9.03814	6.52667	11.49191	11.21261	10.53575	5.42189	4.67623	4.10606	22.49200	19.68367	16.84754	26.05	6.0	0.00	7.37	0.01273	0.01290	0.01665	0.00771	0.00574	0.00630	0.00468	0.01266	0.01686	0.00670	0.00682	0.00882	0.01490	0.01096	0.01197	0.00216	0.00612	0.00860
32910	3.53799	3.58562	2.62269	15.44265	14.64574	14.05273	11.60124	9.11303	6.43070	11.72416	11.36223	10.25698	5.54941	4.71190	4.19371	22.58399	19.47856	16.40622
33070	3.43004	3.57742	2.58872	15.85160	14.66658	13.49208	11.83647	8.93872	6.14000	11.69302	11.33243	10.31312	5.18271	4.47513	3.92003	22.23039	19.26946	16.41369
33240	3.23607	3.47749	2.52754	15.39316	14.51317	13.60778	11.50846	8.82211	6.10858	11.72761	11.13068	10.16030	5.30033	4.50183	3.93287	22.30735	19.24052	16.24419
33400	3.30831	3.60563	2.58823	15.30070	14.38473	13.45181	11.69755	8.89171	6.14881	11.51640	10.99941	10.24803	5.26901	4.57897	4.03683	22.31297	19.38716	16.18884
33570	3.36875	3.57600	2.52255	15.22925	14.77660	13.94828	11.46279	8.93902	6.04750	11.53926	11.35446	10.69100	5.24481	4.55161	3.99898	22.45273	19.38862	16.40846
33730	3.22911	3.58259	2.57673	15.54580	14.59716	13.81411	11.53254	8.89529	6.14404	11.54849	11.30156	10.30973	5.29350	4.64967	4.19861	22.38880	19.78788	16.73760
33890	3.47173	3.95477	2.73313	15.72538	14.90889	14.05213	11.67911	9.05043	6.23586	12.05975	11.75186	10.75039	5.40650	4.79185	4.22929	22.96855	20.14306	17.15345
34060	3.58698	3.78077	2.77686	16.30575	15.51752	14.54058	11.75923	9.43591	6.30510	12.32563	12.33925	11.22930	5.62618	4.85949	4.33403	23.11214	20.21759	17.04743
34220	3.59330	3.84519	2.84633	15.89415	15.30869	14.35706	11.83730	9.46196	6.35876	12.61199	12.54456	11.46231	5.56487	4.91172	4.41319	22.84254	20.36745	17.20921
34390	3.71437	3.86455	2.75822	16.21007	15.28354	14.48707	11.66686	9.28413	6.27730	11.97852	11.56280	10.83052	5.46607	4.72109	4.17637	22.81756	19.78341	16.69411	26.05	6.0	0.00	7.41	0.01273	0.01290	0.01665	0.00771	0.00574	0.00630	0.00468	0.01266	0.01686	0.00670	0.00682	0.00882	0.01490	0.01096	0.01197	0.00216	0.00612	0.00860
34550	3.56696	3.87731	2.74533	15.91272	15.27714	14.20996	11.72783	9.20133	6.25812	11.85633	11.47721	10.51516	5.39370	4.66178	4.11491	22.58132	19.63461	17.21068
34710	3.47533	3.74926	2.62903	16.01468	15.29206	14.95011	11.66311	9.10647	6.28729	12.15601	11.84047	10.89262	5.45528	4.79355	4.25150	22.98147	20.20742	17.20734
34880	3.39753	3.65726	2.67421	16.13276	15.30346	14.34120	11.91164	9.14135	6.18514	11.95026	11.62900	10.58657	5.34348	4.85937	4.19823	23.04099	19.97958	16.47247
35040	3.48514	3.65604	2.69883	15.73138	14.94300	13.99256	11.83531	9.25648	6.28509	12.15113	11.35707	10.32986	5.47009	4.76073	4.11318	22.58854	19.77630	16.79580
35210	3.50287	3.60330	2.68916	16.29804	15.11812	14.23499	11.55818	9.00400	6.19650	11.80877	11.67650	10.41800	5.33843	4.66201	4.23684	22.27151	19.82671	16.68383
35370	3.41856	3.54741	2.64594	15.81917	15.01567	14.37122	11.56364	8.95521	6.18968	12.10065	11.49934	10.81443	5.33569	4.71659	4.07842	22.52088	19.67362	16.57918
35530	3.36367	3.68599	2.65710	15.81429	15.19325	13.94042	11.55971	9.07531	6.17114	11.74911	11.31367	10.32250	5.35912	4.60538	4.09749	22.52877	19.83252	16.80439
35700	3.42058	3.70519	2.58349	15.37528	14.68685	13.85625	11.62559	8.92990	6.01191	11.99175	11.35561	10.58910	5.26704	4.62377	3.98305	22.53165	19.56020	16.42595
35860	3.31206	3.62189	2.52015	15.65228	14.59746	13.90732	11.46797	9.03651	6.15457	11.93903	11.31567	10.58947	5.31320	4.53633	3.95497	22.53165	19.68712	16.46091
36030	3.40344	3.61291	2.49184	15.57518	14.63387	14.06863	11.54494	8.95963	5.98242	11.48394	11.17601	10.31770	5.25189	4.62002	4.03291	22.25970	19.24322	16.64945	26.05	6.0	0.00	7.40	0.01273	0.01290	0.01665	0.00771	0.00574	0.00630	0.00468	0.01266	0.01686	0.00670	0.00682	0.00882	0.01490	0.01096	0.01197	0.00216	0.00612	0.00860
36190	3.45369	3.68619	2.57580	15.19152	14.73028	13.82737	11.64929	9.25173	6.05485	11.62927	11.29478	10.43967	5.29940	4.63040	4.09354	22.78161	19.72437	16.62799
36350	3.39046	3.68615	2.62153	15.96938	14.70579	13.97871	11.71421	9.05547	6.24547	11.90986	11.63826	10.55827	5.41298	4.94775	4.17583	22.51653	19.75804	16.71126
36520	3.50091	3.76723	2.73214	15.58472	14.63527	13.90605	11.66105	9.10247	6.21733	11.74511	11.19346	10.47272	5.33836	4.61702	4.01759	22.67983	19.38158	16.44113
36680	3.34322	3.57654	2.58284	15.44228	14.80159	13.97536	11.42299	8.89116	6.06053	11.62541	11.52281	10.57321	5.28785	4.48593	3.99790	22.36997	19.67495	16.45031
36850	3.37039	3.61297	2.57866	15.35884	14.65843	14.47380	11.66230	9.05433	6.15601	11.79028	11.50462	10.51802	5.40759	4.62453	4.08324	22.38234	19.56850	17.17540
37010	3.41945	3.67908	2.58200	15.70446	14.70866	14.03084	11.46047	8.90213	6.06514	11.95757	11.32853	10.44853	5.29579	4.66895	4.10915	22.51940	19.49847	16.43302
37170	3.37972	3.60617	2.62735	15.50313	14.68738	13.67226	11.60583	9.08625	5.98037	11.67059	11.34901	10.16754	5.30367	4.59084	4.05202	22.43872	19.62858	16.65462
37340	3.49066	3.62871	2.61875	15.69287	14.88339	14.21527	11.76625	9.02635	6.33454	11.55901	11.51125	10.48274	5.38351	4.58963	3.99232	22.55171	19.69531	16.38319
37500	3.43449	3.56292	2.65247	15.59949	14.85595	14.10576	11.61461	8.91180	6.18286	11.75640	11.65311	10.61116	5.48946	4.80403	4.24570	22.60978	19.75615	16.81214
37670	3.65829	3.76395	2.83323	16.34150	15.21012	14.67835	11.89146	9.14415	6.43207	11.89398	11.53277	10.61150	5.56098	4.67102	4.08419	22.89065	19.97158	16.71678	26.11	6.0	0.00	7.33	0.01273	0.01290	0.01665	0.00771	0.00574	0.00630	0.00468	0.01266	0.01686	0.00670	0.00682	0.00882	0.01490	0.01096	0.01197	0.00216	0.00612	0.00860
37830	3.49318	3.72163	2.68678	16.25778	14.99196	14.01267	11.64264	9.16861	6.34122	11.78754	11.71525	10.97357	5.37781	4.62633	4.16480	22.65191	19.68795	16.95093
37990	3.43227	3.60617	2.67453	15.85703	14.78928	13.99006	11.57170	8.94200	6.09326	11.65062	11.33220	10.57741	5.19929	4.63936	3.97391	22.60296	19.84600	16.61879
38160	3.39648	3.59801	2.58550	15.66676	14.80538	13.82676	11.59724	9.01870	6.15441	11.73640	11.22541	10.25217	5.23388	4.52778	4.16614	22.60477	19.47248	16.61325
38320	3.30348	3.51227	2.62318	15.66546	14.61059	13.97967	11.49590	8.89787	6.07861	11.59214	11.30706	10.53600	5.20210	4.52910	3.99281	22.73587	19.64347	16.61979
38490	3.32564	3.52981	2.60067	15.68719	14.97579	14.10095	11.57716	9.29809	6.10227	11.86972	11.46790	10.59129	5.22881	4.55694	3.99857	23.17038	20.21976	16.55739
38650	3.44266	3.56053	2.66127	16.00434	14.96627	14.04875	11.56623	9.17734	6.12273	11.75195	11.44415	10.43143	5.19654	4.48169	3.98904	22.73917	19.70702	16.77669
38820	3.33177	3.59257	2.57461	15.77326	14.97380	14.11936	11.68922	9.01764	6.39389	11.80112	11.21296	10.31494	5.41818	4.63233	4.10238	22.94290	20.24909	16.85889
38980	3.40904	3.67441	2.65154	15.74305	15.22173	13.97037	11.69969	8.99057	6.36891	11.59603	11.44591	10.30346	5.35923	4.81395	4.00105	22.28926	19.65899	16.54758
39140	3.59266	3.80185	2.70122	15.46343	14.80799	13.86880	11.60221	9.27758	6.16201	11.73837	11.44514	10.40450	5.26243	4.72581	4.16727	22.51473	19.99546	17.01371
39310	3.33972	3.58139	2.60526	15.49001	14.76937	13.73713	11.58281	9.11721	6.10911	11.64891	11.14885	10.30491	5.47881	4.76406	4.04944	22.54108	19.56606	16.43587	26.11	6.0	0.00	7.38	0.01273	0.01290	0.01664	0.00771	0.00574	0.00630	0.00468	0.01266	0.01686	0.00670	0.00682	0.00882	0.01490	0.01096	0.01197	0.00216	0.00612	0.00860
39470	3.61053	3.63712	2.66399	15.46701	14.86666	14.08997	11.76100	9.19720	6.29953	11.85968	11.60155	10.48839	5.39373	4.72398	4.17823	22.66918	19.84191	16.69841
39630	3.53884	3.63451	2.64533	15.75816	14.73817	13.87105	11.61057	9.14347	6.25767	11.78968	11.38033	10.43447	5.44946	4.62639	4.03859	22.71261	19.82753	16.91938
39800	3.37760	3.59277	2.58098	15.94421	14.92378	13.98321	11.42518	9.10511	6.10387	12.03234	11.44756	10.48310	5.32604	4.70263	4.05397	22.61651	19.81697	16.89969
39960	3.47093	3.75308	2.64350	15.86697	14.99356	14.25355	11.70037	9.13787	6.26277	11.79117	11.44494	10.39555	5.30986	4.56786	4.11968	22.66881	19.86414	16.77666
40120	3.50845	3.72880	2.71163	16.06725	14.98896	14.29727	11.79455	9.14084	6.29198	11.99846	11.48025	10.68321	5.57332	4.77263	4.16339	22.57566	19.57246	16.75739
40290	3.50208	3.65360	2.71053	16.07321	14.80405	14.14163	11.63489	9.09535	6.21856	11.92949	11.55677	10.51666	5.37667	4.63199	4.10013	22.46372	19.72943	16.93931
40450	3.47517	3.62412	2.60205	15.79802	14.83290	13.64471	11.54103	9.04365	6.16353	11.71726	11.31882	10.54832	5.33922	4.61649	4.03487	22.35902	19.50728	16.27662
40610	3.35637	3.69198	2.53365	15.47093	14.77906	13.83905	11.51926	8.93991	6.00392	11.55042	11.30884	10.27697	5.23648	4.65186	4.11781	22.29637	19.55513	16.71718
40780	3.29311	3.53075	2.59148	15.36627	14.52725	13.84542	11.51745	9.02892	6.19450	11.62516	11.28492	10.31099	5.42974	4.59971	4.22119	22.72798	20.51084	16.83118
40940	3.49023	3.64233	2.59875	15.80286	15.02866	14.13181	11.61183	9.25799	6.14683	11.96828	11.28385	10.42919	5.31861	4.51120	3.95118	22.48454	19.98452	16.95172	26.05	6.1	0.00	7.37	0.01273	0.01290	0.01664	0.00771	0.00574	0.00630	0.00468	0.01266	0.01686	0.00670	0.00682	0.00882	0.01490	0.01096	0.01197	0.00216	0.00612	0.00859
41110	3.45104	3.68672	2.65603	15.56403	15.02296	14.20790	11.63000	9.09081	6.10523	12.25237	11.45862	10.59207	5.39748	4.72451	4.07241	22.70625	19.93947	16.92689
41270	3.46465	3.68189	2.59552	16.01932	15.00541	14.16487	11.60174	9.09686	6.47229	12.22211	11.53071	10.55563	5.53542	4.66719	4.07845	22.92439	20.56380	17.01163
41440	3.46772	3.63942	2.61333	15.85490	15.57998	14.10799	11.69936	9.10387	6.11747	11.80985	11.67290	10.54548	5.34976	4.57940	4.08987	22.50244	19.95161	17.06791
41600	3.44156	3.84851	2.63267	16.11263	15.05694	14.53619	11.64122	9.37783	6.39429	12.13896	11.82604	10.73904	5.45465	4.68760	4.09625	22.99604	20.35989	17.32513
41770	3.44157	3.66376	2.56422	16.31208	15.32843	14.45179	11.59042	9.15227	6.29238	12.21517	11.81248	10.84325	5.54125	4.68477	4.25764	22.89602	20.07093	17.33984
41930	3.61283	3.84464	2.75392	16.24729	15.26480	14.70627	11.89532	9.27338	6.38165	12.59842	12.17374	11.27491	5.41117	4.81067	4.32029	23.24263	20.50273	17.35872
42090	3.57987	3.74707	2.71733	16.48482	15.45427	14.61554	11.69633	9.08420	6.37068	12.39214	11.94096	10.90720	5.39734	4.68112	4.17931	23.04018	20.01696	16.79759
42260	3.60824	3.75633	2.67922	16.33500	15.32287	14.29301	11.79660	9.12095	6.26176	12.06299	11.89560	10.50211	5.45850	4.84880	4.10933	23.22991	20.31223	17.41519
42420	3.51772	3.94012	2.65259	16.15317	15.37495	14.36087	11.62750	9.01580	6.03354	11.83217	11.46278	10.58130	5.38074	4.64979	4.13121	22.82434	20.07337	16.70006
42590	3.48554	3.64835	2.69900	15.97814	15.08225	14.00224	11.60923	9.13228	6.23498	11.82213	11.59478	10.45783	5.34467	4.63479	4.18496	22.59091	19.74065	16.74042	26.11	6.1	0.00	7.48	0.01273	0.01290	0.01664	0.00771	0.00574	0.00630	0.00468	0.01266	0.01686	0.00670	0.00682	0.00882	0.01490	0.01096	0.01197	0.00216	0.00612	0.00860
42750	3.44224	3.66214	2.69478	15.73907	14.93075	14.11661	11.61618	9.11625	6.24387	11.80253	11.41913	10.43520	5.42848	4.70027	4.03459	22.64816	20.23748	16.63135
42920	3.48291	3.76312	2.65298	15.49006	14.94985	13.98523	11.52661	9.22838	6.14874	11.84556	11.45424	10.58359	5.44722	4.66318	4.13965	22.78354	20.11265	16.86598
43080	3.40864	3.67991	2.64258	16.17986	15.03786	14.16836	11.67735	9.18299	6.24265	11.98270	11.44768	10.68651	5.90007	5.01392	4.28047	22.98372	19.86614	16.86060
43250	3.50977	3.86424	2.71689	15.87073	14.83998	14.19655	11.52313	8.86897	6.10250	11.76252	11.63947	10.43452	5.31295	4.58740	4.05169	22.46665	19.71559	16.53287
43410	3.37229	3.61456	2.66854	15.55591	14.51709	13.72414	11.75536	8.88608	6.09777	11.82730	11.22148	10.31793	5.41984	4.74000	4.08249	22.51997	19.74065	16.37176
43570	3.43503	3.58063	2.67578	16.11965	14.77843	14.79434	11.52357	8.70944	6.11092	11.80208	11.39546	10.48320	5.17738	4.53221	3.98036	22.40794	19.49502	16.65785
43740	3.42231	3.56431	2.59083	15.51696	14.85093	13.97154	11.55822	8.91913	6.09636	11.64215	11.37633	10.63776	5.30301	4.58994	4.42271	22.48380	20.17640	16.63326
43900	3.38439	4.01026	2.61102	15.67524	14.90934	14.14025	11.67521	8.96103	6.15742	11.86415	11.29275	10.69325	5.30547	4.60610	4.03877	22.50133	20.39808	16.68831
44060	3.28335	3.53745	2.54195	15.51757	14.88505	13.95905	11.34806	8.79143	6.22949	11.76655	11.23189	10.88606	5.26800	4.52071	4.08572	22.58151	19.71944	16.62071
44230	3.57312	3.59454	2.61350	15.44164	14.87173	13.84444	11.41456	8.93767	6.13365	11.70675	11.31871	10.39322	5.45342	4.61121	4.05057	22.80263	19.85792	16.64047	26.11	6.1	0.00	6.42	0.01273	0.01290	0.01664	0.00771	0.00574	0.00630	0.00468	0.01266	0.01686	0.00670	0.00682	0.00882	0.01490	0.01096	0.01197	0.00216	0.00612	0.00859
44390	3.37666	3.62576	2.57902	15.58764	14.96261	14.10560	11.49668	8.97581	6.06962	11.85443	11.29372	10.32078	5.31795	4.67311	4.10085	22.91922	19.70927	16.82811
44560	3.46129	3.72058	2.62233	15.60317	14.89874	14.01772	11.71162	9.08191	6.23313	11.93451	11.63547	10.49902	5.29458	4.67148	4.13720	22.41133	19.59584	16.52062
44720	3.42468	3.68070	2.64966	15.49969	14.90209	14.07697	11.65922	9.43717	6.19140	11.67115	11.45455	10.61131	5.40517	4.76129	4.17761	22.39820	19.95489	16.50301
44880	3.35598	3.61483	2.64818	15.61676	14.66917	13.75164	11.86240	8.94207	6.10310	11.67100	11.36480	10.42523	5.35132	4.66471	4.32021	22.52665	19.72414	17.54125
45050	3.46986	3.65936	2.65257	15.57209	14.82873	14.15139	11.57313	8.88192	6.09357	11.57523	11.32148	10.21374	5.29392	4.62316	3.98865	22.88157	20.17719	16.67222
45210	3.42231	3.50986	2.62834	15.61614	14.81033	13.91244	11.64379	9.05953	6.17107	11.70842	11.24119	10.31547	5.26726	4.58796	4.03209	22.66587	19.94391	16.79780
45370	3.36539	3.65254	2.57848	15.76765	14.81193	13.82769	11.42770	8.84541	6.11874	11.79635	11.39220	10.86722	5.38657	4.57093	4.05874	22.59801	19.57077	16.67462
45540	3.40821	3.65248	2.52100	15.65505	14.83432	13.86803	11.44042	9.02556	6.24544	11.55224	11.24760	10.21312	5.24697	4.55200	3.98640	22.49116	19.65244	16.59568
45700	3.45243	3.62716	2.54308	15.58058	14.63939	13.83604	11.68358	9.04256	6.10105	11.75328	11.22225	10.20206	5.30967	4.56173	4.09461	22.26403	19.33556	16.67515
45870	3.38427	3.58539	2.65257	15.46493	14.87870	14.04966	11.53347	9.02197	6.09539	11.84860	11.31591	10.25281	5.25823	4.54947	3.96615	22.49355	19.71728	16.40956	26.11	6.0	0.00	7.32	0.01273	0.01290	0.01664	0.00771	0.00574	0.00630	0.00468	0.01266	0.01686	0.00670	0.00682	0.00882	0.01490	0.01096	0.01197	0.00216	0.00612	0.00859
46030	3.37981	3.66736	2.57427	15.38545	14.75970	14.09654	11.59326	9.07554	6.23066	11.77624	11.85462	10.21635	5.27522	4.70189	4.05670	22.46603	19.79627	16.62810
46200	3.28161	3.64634	2.57487	15.66270	14.91825	14.12323	11.83829	8.97300	6.02041	11.79845	11.55987	10.81930	5.34419	4.70586	4.07737	23.16338	20.18557	16.89331
46360	3.44877	3.86810	2.78498	16.08773	15.06706	14.33024	11.80967	9.39956	6.52980	12.47577	12.42381	11.23068	5.68934	5.00298	4.39949	23.40747	20.20502	17.43027
46520	3.81358	4.00498	2.97545	16.33816	15.31713	14.53886	11.85005	9.37238	6.69330	12.39779	12.35283	11.27412	5.61693	5.12308	4.41169	23.22134	20.25574	17.22386
46690	3.71652	3.99209	2.86177	16.34398	15.58187	14.50678	11.90808	9.33510	6.40953	12.28331	11.82245	11.09949	5.65139	4.70628	4.29517	23.20980	20.00243	16.86310
46850	3.63221	3.79005	2.87194	16.02568	15.08198	14.18743	11.89474	9.38087	6.32150	12.05096	11.80051	10.94530	5.41167	4.65404	4.10982	22.78999	19.87522	16.83917
47020	3.46827	3.66377	2.75440	16.24885	15.29500	14.08424	11.90393	9.15571	6.34806	11.82411	11.37762	10.57187	5.36577	4.71363	4.23240	22.52367	19.72085	16.83093
47180	3.37074	3.64149	2.62188	15.57896	15.05715	14.55825	11.60605	9.09181	6.23974	11.89787	11.34122	10.29227	5.25093	4.59231	4.22264	22.35280	19.76265	16.64903
47350	3.26861	3.53735	2.51672	15.76487	14.65685	13.72981	11.50020	8.91070	5.93099	11.97435	11.26196	10.34668	5.37670	4.66931	4.10696	22.37223	19.48002	16.53158
47510	3.45721	3.61849	2.59488	15.53845	14.60655	14.00082	11.49251	9.01351	6.02697	11.51946	11.30840	10.38505	5.81206	4.51447	4.15616	22.46840	19.40822	16.47209	26.11	6.0	0.00	7.34	0.01273	0.01290	0.01664	0.00771	0.00574	0.00630	0.00468	0.01266	0.01686	0.00670	0.00682	0.00882	0.01490	0.01096	0.01197	0.00216	0.00612	0.00859
47680	3.45444	3.66576	2.70206	15.31835	14.77666	13.78019	11.50683	8.82678	6.07007	11.47129	11.13030	10.03957	5.30758	4.47447	4.03349	22.13869	19.29344	16.60899
47840	3.38652	3.60429	2.54437	15.48283	14.49284	13.92755	11.56902	9.03535	6.20262	11.52456	11.15393	10.44445	5.40913	4.63005	4.06109	22.31466	19.87761	16.42822
48010	3.38962	3.54381	2.55739	15.85318	14.79577	13.86528	11.40509	8.91148	5.94991	11.52263	11.14896	10.12637	5.25462	4.57009	3.98428	22.56346	19.66826	16.41868
48170	3.37753	3.58019	2.59417	15.47310	14.70587	14.28322	11.62500	8.99084	6.10706	12.05919	11.58352	10.51648	5.31167	4.55848	3.99055	22.80272	19.96647	16.72408
48330	3.42851	3.56248	2.60454	15.87885	15.13985	14.08482	11.56166	9.17429	6.14825	11.98054	11.64511	10.61279	5.54904	4.70213	4.17480	22.41784	19.91968	16.77043
48500	3.45699	4.03561	2.73736	15.82385	15.05582	14.19688	11.73168	9.20660	6.12989	12.16099	11.27012	10.40130	5.34947	4.63367	4.09329	22.58546	19.95682	16.78395
48660	3.36555	3.73650	2.70014	15.65905	14.66763	14.10550	11.42971	8.92014	6.08239	11.68756	11.36331	10.37301	5.37616	4.52317	4.14411	22.45556	19.52774	16.71502
48820	3.33591	3.57890	2.55017	15.64963	14.79334	14.18808	11.66656	8.96299	6.02775	11.83174	11.31773	10.32385	5.25986	4.55636	3.93672	22.58799	19.53661	16.51770
48990	3.32346	3.56640	2.67625	15.59620	14.66073	13.82630	11.44021	8.93730	6.08962	11.74494	11.13483	10.33064	5.25784	4.66196	4.15715	22.23692	19.30988	16.23441
49150	3.38564	3.56605	2.56639	15.22427	14.43504	13.80221	11.59076	9.06999	6.11003	11.75380	11.28187	10.49617	5.27279	4.52436	3.92447	22.15604	19.19873	16.71656	26.11	6.2	0.00	7.34	0.01273	0.01290	0.01664	0.00772	0.00574	0.00630	0.00468	0.01266	0.01686	0.00670	0.00682	0.00882	0.01490	0.01096	0.01197	0.00216	0.00612	0.00859
49320	3.39297	3.54852	2.57643	15.41610	14.75908	14.11825	11.55562	8.95764	6.18242	11.65036	11.19990	10.34416	5.53982	4.59102	4.08181	22.62253	19.71507	17.12461
49480	3.44629	3.57978	2.68212	15.78923	15.11577	14.33682	11.57077	9.08814	6.10898	12.29104	11.63400	10.48919	5.21216	4.56975	4.03067	22.47996	19.65540	16.64365
49650	3.43511	3.54462	2.59038	15.67352	14.72297	13.89927	11.51415	9.02586	6.14417	11.63323	11.17659	10.30816	5.32311	4.60437	4.09885	22.49713	19.55423	16.61237
49810	3.44682	3.75263	2.94202	15.69893	14.85571	13.76618	11.61760	9.05179	6.14163	11.62892	11.12726	10.26299	5.28760	4.53822	4.02058	22.52510	19.54433	16.71936
49970	3.40628	3.57579	2.59729	16.02379	14.60359	14.06475	11.51843	8.93118	6.17392	11.67594	11.18412	10.29051	5.29937	4.60799	3.99391	22.40766	19.47417	16.31748
50140	3.34213	3.54972	2.53340	15.48202	14.62522	13.79438	11.51828	9.15947	5.98319	11.76766	11.12515	10.23337	5.38137	4.67739	3.96915	22.44214	19.51136	16.41770
50300	3.29246	3.61715	2.60807	15.63756	14.53054	13.86118	11.51017	8.90386	6.15538	11.65600	11.25295	10.22013	5.66335	4.87028	4.08316	22.33693	19.37245	16.52786
50470	3.46100	3.64627	2.59523	15.60111	14.87062	13.93402	11.65105	8.97151	6.04655	11.60221	11.31776	10.27915	5.22460	4.62020	4.04630	22.46639	19.63961	16.58799
50630	3.36850	3.64074	2.60500	15.80322	14.98239	14.34872	11.63372	8.96882	6.14317	12.02101	11.39053	10.46777	5.40055	4.56889	4.05882	22.35774	19.52021	16.54992
50790	3.46679	3.74788	2.62488	15.85589	14.76806	13.93698	11.65600	9.08153	5.98478	11.82126	11.48309	10.45930	5.32930	4.56127	4.01925	22.46523	19.57390	16.23553	26.05	5.9	0.00	7.32	0.01273	0.01290	0.01664	0.00771	0.00574	0.00630	0.00468	0.01266	0.01686	0.00670	0.00682	0.00882	0.01490	0.01096	0.01197	0.00216	0.00612	0.00860
50960	3.33918	3.61164	2.60930	15.24022	14.75903	14.19361	11.58895	9.01323	6.16409	11.92319	11.25524	10.27207	5.31290	4.66758	4.08192	22.41467	19.58569	16.62173
51120	3.48091	3.56072	2.64688	15.65564	14.96302	14.32036	11.61052	9.07684	6.13507	11.88579	12.00096	10.49120	5.27542	4.73547	4.09228	22.45274	19.74100	17.19818
51280	3.42123	3.82989	2.61418	15.74963	15.13604	14.01952	11.56707	9.14495	6.31958	11.60716	11.27692	10.27137	5.71190	4.87910	4.17269	22.47558	19.81362	16.64093
51450	3.47415	3.55685	2.63240	15.75555	14.64728	14.02922	11.41909	8.88748	6.19278	11.77404	11.12422	10.27256	5.17562	4.65060	4.08117	22.25613	19.51774	16.44494
51610	3.38771	3.62195	2.60743	15.57229	14.91761	14.18974	11.53375	9.00021	6.13996	11.55579	11.16292	10.35340	5.42094	4.67861	4.16283	22.60432	19.73855	16.70362
51770	3.40556	3.59059	2.77775	15.68819	14.81475	13.84593	11.51931	9.03584	6.08570	11.58963	11.26077	10.13891	5.28224	4.43081	4.00271	22.41006	19.50566	16.53985
51940	3.36370	3.60094	2.52561	15.33159	14.62130	13.59184	11.59925	8.90537	6.01320	11.43650	11.16822	10.07978	5.26190	4.53850	3.92033	22.58371	19.58021	16.47819
52100	3.29423	3.48529	2.54014	15.57272	14.52437	13.92531	11.35218	8.72131	6.01529	11.61818	11.53879	10.04412	5.19800	4.42555	4.13670	22.20140	19.32693	16.22681
52260	3.31090	3.55256	2.59217	15.60017	14.69892	13.60270	11.44936	8.90732	6.03472	11.84318	11.35684	10.49339	5.24177	4.61678	4.02306	22.16081	19.31427	16.37971
52430	3.31352	3.54390	2.47162	15.35190	14.43769	13.71738	11.34825	8.95135	6.07702	11.53431	11.26661	10.47024	5.26488	4.56788	3.96763	22.31512	19.55954	16.63007	26.17	6.0	0.00	7.34	0.01273	0.01290	0.01664	0.00771	0.00574	0.00630	0.00468	0.01266	0.01686	0.00670	0.00682	0.00882	0.01490	0.01096	0.01197	0.00216	0.00612	0.00860
52590	3.41288	3.58071	2.57739	15.47551	14.67098	13.72607	11.44870	9.01573	6.04566	11.48161	11.02522	10.22970	5.28998	4.58701	4.01877	22.38002	19.48064	16.18226
52750	3.27250	3.57299	2.55753	15.13201	14.38908	13.92364	11.64908	9.07525	6.03934	11.66464	11.30154	10.50144	5.38812	4.53836	4.02262	22.59538	19.90902	16.80034
52920	3.34331	3.53199	2.62617	16.06397	15.01751	14.21582	11.54493	8.90518	6.08227	11.81882	11.72071	10.67008	5.40827	4.62454	4.10992	22.87070	19.79796	16.70067
53080	3.43324	3.58024	2.66197	15.88588	14.58637	13.93800	11.74727	9.03852	6.39092	11.87673	11.69111	10.56350	5.40934	4.75621	4.14953	22.56469	19.47577	16.86335
53250	3.44206	3.77623	2.69170	16.17000	15.05001	14.04437	11.76346	9.19508	6.28756	12.05610	11.73032	10.70926	5.41583	4.55975	4.18390	22.52080	19.66806	16.57640
53410	3.42687	3.60432	2.66018	15.67673	14.80753	14.00637	11.75826	8.97954	6.05363	11.92352	11.67521	10.49628	5.33276	4.69856	4.13417	22.67161	19.55713	16.66922
53570	3.50829	3.67698	2.68583	15.70017	14.89326	13.86874	11.71320	9.05538	6.02708	11.55178	11.21402	10.57208	5.36730	4.63457	4.12779	22.49499	19.67753	16.82256
53740	3.42486	3.67370	2.58383	15.71903	14.77030	13.84140	11.68853	8.86742	6.01931	11.63813	11.41760	10.33890	5.40625	4.61638	4.00994	22.82546	19.43414	16.52097
53900	3.59885	3.78936	2.66427	15.88691	15.06430	14.01946	11.59998	9.11717	6.16836	12.65392	11.52535	10.52690	5.41634	4.76064	4.23893	22.59140	20.06918	16.82675
54070	3.73954	3.86072	2.80488	15.84425	14.99815	14.40128	11.98801	9.42798	6.52575	11.96112	11.81494	10.70960	5.39481	4.89452	4.06732	22.61710	19.85850	17.06767	26.11	6.0	0.00	7.35	0.01273	0.01290	0.01664	0.00771	0.00574	0.00630	0.00468	0.01266	0.01686	0.00670	0.00682	0.00882	0.01490	0.01096	0.01197	0.00216	0.00612	0.00859
54230	3.44983	3.65797	2.62915	15.88549	14.84375	14.07752	11.71492	9.07551	6.16735	11.79313	11.49727	10.66331	5.40148	4.72659	4.29316	22.74394	19.76226	16.60297
54390	3.40617	3.62236	2.65075	15.70887	14.92944	14.17713	11.88534	9.06560	6.15844	11.84310	11.55129	10.41196	5.32523	4.68718	4.02834	22.70952	19.84581	16.87627
54560	3.41148	3.58417	2.60807	15.80181	14.98052	13.94528	11.52158	9.03163	6.22517	12.00556	11.19773	10.23578	5.36336	4.55034	4.06771	22.30791	19.74403	16.68384
54720	3.48464	3.60575	2.58131	15.50993	14.68495	14.01867	11.62394	9.10533	6.25896	11.76606	11.41977	10.32761	5.51033	4.74234	4.18775	22.36072	19.57643	16.55180
54880	3.50101	3.73534	2.65313	15.62253	14.87265	14.30614	11.71588	9.06011	6.28398	11.88192	11.25860	11.06551	5.33060	4.59133	3.94522	23.02366	20.01599	16.75144
55050	3.41607	3.65443	2.57642	15.59286	15.11717	13.90096	11.58532	9.11089	6.29073	11.94406	11.45940	10.50407	5.32056	4.58419	4.01688	22.68214	20.12735	17.14557
55210	3.45469	3.62179	2.61802	16.14439	15.09152	13.87890	11.72958	9.15984	6.26971	12.01714	11.56044	10.87983	5.34141	4.73180	4.10376	23.13137	19.93256	16.93873
55380	3.45856	3.68877	2.60092	15.90159	15.16050	14.02886	11.76080	9.07696	6.20660	11.89650	11.46180	10.49029	5.39873	4.72684	4.21527	22.57950	19.78394	16.53698
55540	3.49756	3.72930	2.62227	15.57358	14.88154	13.97939	11.73106	9.26662	6.35217	11.94012	11.52141	10.47607	5.41123	4.57897	4.11493	22.36178	19.62620	16.70215
55710	3.37128	3.64549	2.71170	15.81797	14.80848	13.91743	11.61343	9.14592	6.17257	12.20228	12.09402	10.74761	5.29137	4.57588	4.05134	22.40097	19.92921	17.01502	26.11	6.2	0.00	7.32	0.01273	0.01290	0.01664	0.00771	0.00574	0.00630	0.00468	0.01266	0.01686	0.00670	0.00682	0.00882	0.01490	0.01096	0.01197	0.00216	0.00612	0.00860
55870	3.38558	3.62524	2.65073	15.91199	14.94446	14.21552	11.59193	9.12880	6.20431	12.19033	11.99625	10.99768	5.43316	4.85837	4.46624	22.92783	19.92902	17.00847
56030	3.45622	3.76485	2.74900	15.93090	15.26782	14.18029	11.79648	9.17367	6.20845	12.00084	11.92236	10.86940	5.40683	4.77378	4.17042	23.04281	20.35122	17.24355
56200	3.47806	3.74953	2.73226	16.52269	15.37743	14.52880	11.77615	9.41294	6.49147	12.33757	12.31693	11.13117	5.54824	4.84910	4.28464	23.37675	20.64124	17.25996
56360	3.59955	3.74766	2.80776	16.51603	15.84635	14.73327	11.89522	9.35032	6.38220	12.36766	12.03161	10.97487	5.53914	4.71109	4.18594	23.28921	20.72405	17.58802
56530	3.61433	3.74015	2.74520	16.47853	15.20100	14.50609	11.80647	9.25094	6.36061	12.54287	12.11619	10.90404	5.44715	4.75401	4.35101	23.21742	20.26258	17.24954
56690	3.59008	3.80102	2.73254	16.25945	15.21618	14.41558	11.78970	9.32138	6.40553	12.59909	11.83535	11.11408	5.44932	4.72995	4.30769	23.35723	20.17718	17.20295
56850	3.49326	3.73476	2.71728	16.28958	15.26987	14.48680	11.88093	9.74479	6.65895	12.15921	11.81037	10.63286	5.53941	4.85590	4.29726	23.54501	20.26437	17.09795
57020	3.50397	3.76958	2.68052	16.23130	15.53315	15.16768	11.73079	9.26334	6.36241	12.16755	11.90051	10.61943	5.40439	4.84316	4.11440	23.26252	20.76546	17.37923
57180	3.54391	3.71653	2.65149	16.29901	15.18092	14.36295	12.08256	9.16690	6.42711	12.99580	12.08131	10.82085	5.46736	4.80481	4.19721	23.49704	20.37893	17.37887
57350	3.48433	3.73027	2.70249	16.31943	15.45090	14.36858	11.75579	9.13590	6.36488	12.10584	12.03822	10.84934	5.62446	4.69467	4.16298	23.16915	19.94540	17.13533	26.17	6.1	0.00	7.36	0.01273	0.01290	0.01664	0.00771	0.00574	0.00630	0.00468	0.01266	0.01686	0.00670	0.00682	0.00882	0.01490	0.01096	0.01197	0.00216	0.00612	0.00860
57510	3.56388	4.01610	2.74440	16.14130	15.20524	14.68559	11.72532	9.21967	6.19440	12.05481	11.83921	10.77092	5.44541	4.79132	4.14926	23.16609	20.27826	17.24863
57670	3.59515	3.76945	2.79247	16.18779	15.19192	14.68570	11.74072	9.34619	6.23224	12.35231	11.97139	11.05983	5.48972	4.76030	4.29465	24.04073	21.35562	17.92736
57840	3.68999	4.02720	2.82269	16.34011	15.63904	14.70871	11.87379	9.47766	6.55229	12.51888	12.33258	11.12575	5.57198	4.78968	4.28098	23.29160	20.68716	17.25936
58000	3.56930	3.92326	2.77732	16.00350	15.22790	14.55017	12.01482	9.24189	6.41212	12.06329	11.85096	10.95592	5.57522	4.86762	4.32655	23.13057	20.39618	17.40557
58160	3.66402	3.85055	2.80310	16.01291	15.38085	14.58103	11.78143	9.36865	6.31235	12.08221	11.66087	11.10071	5.43003	4.84580	4.27272	23.15768	20.07864	17.06211
58330	3.56688	3.74807	2.66889	15.80886	15.14724	14.26849	11.69863	9.12975	6.11308	11.83960	11.63651	10.54918	5.32520	4.63787	4.09911	22.64106	19.65472	17.37769
58490	3.45185	3.67041	2.59310	15.81179	14.97667	13.95499	11.64797	8.98362	6.12273	11.92991	11.46618	10.64232	5.30280	4.61574	4.08926	22.46403	19.90169	16.85783
58650	3.41521	3.70902	2.74081	15.71183	14.99272	14.16542	11.60443	9.07180	6.30767	11.63036	11.28388	10.29315	5.23002	4.61722	4.11086	22.62727	19.74895	16.65702
58820	3.42916	3.64261	2.59181	15.75758	14.81988	13.91137	11.47972	8.96533	6.19185	11.98530	11.73462	10.70672	5.27951	4.53357	4.08692	22.70625	19.51314	16.76849
58980	3.33204	3.63196	2.55485	15.86179	15.01518	14.35436	11.56686	9.07907	5.95435	12.18735	11.58302	10.58047	5.28231	4.60431	4.14100	22.91734	19.81229	16.68167	26.17	6.0	0.00	7.44	0.01273	0.01290	0.01664	0.00771	0.00574	0.00630	0.00468	0.01266	0.01686	0.00670	0.00682	0.00882	0.01490	0.01096	0.01197	0.00216	0.00612	0.00860
59140	3.46622	3.66988	2.56067	16.03526	15.30395	13.97911	11.69156	9.01033	6.26621	11.99600	11.49013	10.41047	5.33031	4.64946	4.03370	22.86524	19.80233	16.62734
59310	3.45384	3.68595	2.62369	15.65367	14.89372	14.03208	12.16737	9.08839	6.18603	11.64468	11.41033	10.54698	5.46487	4.71552	4.37059	22.38482	19.67082	16.82014
59470	3.49309	3.74528	2.80173	15.81264	14.90880	13.97468	11.71024	9.20904	6.25213	11.87835	11.45161	10.55997	5.30951	4.65398	4.03012	22.63447	20.04018	16.48255
59630	3.41744	3.62737	2.60336	15.71539	14.69785	13.95173	11.88191	9.32027	6.30569	11.46882	11.54195	10.39433	5.43063	4.68202	4.21535	22.72299	19.76917	16.87480
59800	3.61029	3.78426	2.71422	15.84262	14.82317	13.99671	11.78688	9.22683	6.18678	12.14430	11.64143	10.65667	5.43419	4.61573	4.06431	22.69814	19.70065	16.89488
59960	3.44887	3.68127	2.64657	16.05861	15.12508	14.21335	11.58326	9.03758	6.07931	12.23746	11.49871	10.42250	5.25887	4.65526	4.13942	22.98998	20.32384	16.96120
60120	3.64804	3.72847	2.73715	15.95221	15.03602	14.27265	11.76872	9.14436	6.26437	12.26467	11.74260	10.87277	5.54944	4.76701	4.20876	23.23190	20.59521	17.33038
60290	3.59320	3.85420	2.65692	15.88927	15.50639	14.57924	11.65173	9.12025	6.30324	12.29833	11.68142	11.42565	5.49591	4.68659	4.18253	23.06808	20.16977	17.12071
60450	3.60431	3.84920	2.75250	16.18950	15.38570	14.97903	11.87891	9.31662	6.39528	12.61020	11.91544	11.35094	5.58838	4.66353	4.13497	23.12468	20.27636	17.38507
60620	3.52411	3.64965	2.74011	16.43995	15.32203	14.49798	11.72751	9.09930	6.31362	12.12566	11.75193	10.81579	5.43956	4.78142	4.21753	23.09776	20.32269	16.99392	26.11	6.2	0.00	7.38	0.01273	0.01290	0.01664	0.00771	0.00574	0.00630	0.00468	0.01266	0.01686	0.00670	0.00682	0.00882	0.01490	0.01096	0.01197	0.00216	0.00612	0.00860
60780	3.49883	3.76917	2.78913	16.36235	15.51200	14.65019	11.88677	9.42951	6.37119	12.68391	12.23182	11.17416	5.64127	4.90955	4.24571	23.40884	20.35704	17.25957
60940	3.79273	4.01442	2.84642	16.34704	15.42883	14.95687	12.23879	9.46295	6.62467	12.53840	12.27437	11.57679	5.70445	4.74063	4.20894	23.21588	20.49992	17.24981
61110	3.61403	3.80618	2.77441	16.51921	15.39507	14.51931	11.90040	9.23963	6.28211	12.35028	12.08223	10.80953	5.64239	4.88174	4.34282	23.13126	20.56793	17.78968
61270	3.58500	3.79561	2.70903	16.44854	15.42807	14.72625	11.76951	9.37538	6.30134	12.66754	11.87941	11.02265	5.41792	4.82370	4.36830	23.32530	20.15523	17.25012
61440	3.53869	3.81760	2.74830	16.13997	15.36055	14.56416	11.85778	9.26146	6.26767	12.35253	11.63539	10.47006	5.49004	4.79365	4.17910	22.81120	20.03444	16.91420
61600	3.86605	3.80494	2.74918	15.84010	14.76833	14.71919	11.88421	9.27357	6.38239	12.07357	11.65347	10.66526	5.61385	4.74430	4.18019	23.02658	20.45159	17.18594
61760	3.48096	3.70812	2.78252	16.23525	15.58010	14.23810	11.58892	9.20231	6.20672	12.18681	12.10255	11.00133	5.47606	4.66445	4.07457	23.29580	20.91605	17.05368
61930	3.45496	3.74740	2.74148	16.21326	15.14272	14.24123	11.81444	9.24514	6.24181	11.91120	11.75292	10.60095	5.56216	4.75461	4.16604	23.07878	20.08010	17.08687
62090	3.43745	3.70900	2.64475	16.02372	15.15806	14.39366	11.87828	9.21085	6.22680	12.14114	12.06382	11.03246	5.49081	4.73341	4.27357	23.57247	20.46639	17.29401
62250	3.50321	3.87200	2.76629	16.37947	15.93943	14.48441	11.93338	9.31465	6.26867	12.42155	12.29274	10.93084	5.46076	4.80105	4.18458	23.49915	20.58557	17.00703	26.17	5.9	0.00	7.35	0.01273	0.01290	0.01664	0.00771	0.00574	0.00630	0.00468	0.01266	0.01686	0.00670	0.00682	0.00882	0.01490	0.01096	0.01197	0.00216	0.00612	0.00860
62420	3.55089	3.80714	2.84663	16.38407	15.61531	14.83773	11.72754	9.53873	6.44798	12.99088	12.54735	11.26779	5.72849	4.78653	4.19737	23.72647	20.49370	17.47283
62580	3.56012	3.79808	2.79615	16.04020	15.69164	14.54176	11.73287	9.30452	6.41771	11.87803	11.60150	10.73470	5.39412	4.65414	4.21652	22.89868	20.05866	17.05276
62740	3.76239	3.79176	2.81978	15.75705	14.87401	14.03401	11.61981	9.13708	6.22171	12.23700	11.56278	10.72520	5.47521	4.74130	4.08179	22.79820	20.06480	16.98716
62910	3.52124	3.79909	2.70358	16.04220	15.29309	14.12864	11.66319	9.12213	6.21030	12.12611	11.79422	11.19664	5.31894	4.82837	4.10617	23.09549	20.13855	17.06941
63070	3.56956	3.82817	2.70291	16.04165	15.51911	14.79891	11.81864	9.27808	6.54230	12.19864	12.13104	11.00533	5.63022	5.09209	4.27913	23.35576	20.94396	17.43254
63230	3.65708	3.85165	2.78347	16.24505	15.59457	14.62247	11.83270	9.39368	6.41351	12.19066	11.99474	11.12001	5.64052	4.81845	4.35771	23.50430	20.41608	17.43114
63400	3.63204	3.89884	2.77681	16.49426	15.66195	14.73470	11.77005	9.44750	6.29599	12.68763	12.25222	11.17658	5.57196	4.81644	4.25607	23.18405	20.41003	17.44792
63560	3.62825	3.95698	2.80066	17.38918	16.15518	15.01935	11.93194	9.29857	6.44819	12.64511	12.01341	10.81166	5.63737	4.79385	4.17683	23.08068	20.59770	17.19182
63720	3.52507	3.77239	2.65284	16.80130	15.67481	14.52692	11.75846	9.09193	6.23120	11.98287	12.08869	11.09624	5.51536	4.94968	4.48375	23.21016	20.42568	18.27449
63890	3.66596	3.99348	2.76887	16.85462	15.99885	15.13890	11.85919	9.42221	6.56199	12.74848	11.76320	10.73243	5.49799	4.69491	4.29616	23.18266	20.44418	17.37006	26.23	6.0	0.00	6.48	0.01273	0.01290	0.01664	0.00771	0.00574	0.00630	0.00468	0.01266	0.01686	0.00670	0.00682	0.00882	0.01490	0.01096	0.01197	0.00216	0.00612	0.00859
64050	3.68461	4.14895	2.80914	16.47159	15.54716	14.62778	11.87022	9.35386	6.61685	13.00135	12.23533	11.03647	5.58415	4.94559	4.22642	23.57490	20.51702	17.62345
64210	3.63008	3.84392	2.70854	16.72777	15.59202	14.66036	12.02964	9.50503	6.40363	12.36867	11.98292	10.96484	5.64054	4.83399	4.24926	23.49901	21.49169	17.78237
64380	3.70354	3.91607	2.84013	16.32657	15.52541	14.75720	12.10024	9.48291	6.55003	12.62642	12.02638	11.09377	5.58339	4.84208	4.28574	23.65659	20.30087	17.18191
64540	3.62829	3.83473	2.73672	15.98219	15.31716	14.38897	11.93146	9.32558	6.44946	12.05930	11.83849	10.92012	5.50245	4.82508	4.22380	23.06599	20.07123	17.21431
64700	3.50454	3.81397	2.88184	16.07492	15.11133	14.10090	11.69779	9.46364	6.31690	11.76757	11.66377	10.64117	5.34638	4.62005	4.11430	23.10207	20.26949	16.89004
64870	3.56099	3.90866	2.63152	15.85571	15.38390	14.28860	11.68702	9.20354	6.28188	12.01274	11.81308	10.89026	5.55814	4.64825	4.17399	22.92112	20.65325	17.26905
65030	3.52008	3.82664	2.59374	16.02700	15.19746	14.20866	11.96779	9.25513	6.26501	12.16706	11.43654	10.74045	5.30440	4.70373	4.05949	22.81114	19.96656	16.54371
65190	3.34845	3.56574	2.65935	15.88740	14.79144	14.09940	11.57477	9.00954	6.11893	11.88395	11.31817	10.51809	5.36709	4.54578	4.06503	22.55397	19.66037	16.47773
65360	3.30044	3.59670	2.54940	15.77252	14.79132	14.28642	11.77649	8.99646	5.99513	11.64041	11.05209	10.17221	5.24567	4.55268	4.01667	23.09636	20.20781	16.44837
65520	3.30040	3.47249	2.48993	15.60122	15.04918	13.72298	11.38973	8.88388	6.00686	11.40427	11.15445	10.39272	5.26216	4.45457	3.91160	22.59491	19.50549	16.54963	26.17	6.0	0.00	7.32	0.01273	0.01290	0.01664	0.00771	0.00574	0.00630	0.00468	0.01266	0.01686	0.00670	0.00682	0.00882	0.01490	0.01096	0.01197	0.00216	0.00612	0.00860
65680	3.29098	3.63865	2.62209	15.77003	14.89226	14.14662	11.54550	8.98053	6.22567	11.77256	11.42222	10.75780	5.29067	4.59210	4.07114	22.76294	20.25139	17.08596
65850	3.40156	3.65921	2.62744	15.81166	14.90584	14.14923	11.47897	9.05337	6.02398	11.86503	11.39213	10.53376	5.35169	4.70210	4.05392	22.75229	19.88124	16.73573
66010	3.51607	3.95632	2.77104	15.72771	14.89723	14.11273	11.56828	9.08996	6.28535	11.85091	11.60856	10.58045	5.31808	4.62701	4.09540	23.18296	20.35969	17.18189
66170	3.49132	3.67003	2.75936	16.23263	15.41795	14.54847	11.79575	9.24356	6.28134	12.10465	11.90397	10.91468	5.64641	4.97576	4.29159	23.07430	20.07484	16.99595
66340	3.64665	3.83293	2.69371	16.21527	15.56312	14.48108	11.80209	9.19933	6.21449	12.19255	11.79497	10.94163	5.41851	4.80528	4.26156	23.42272	20.33173	17.37171
66500	3.63846	3.89056	2.82417	16.61642	15.73485	15.07707	12.09321	9.37347	6.61737	13.09150	12.33043	11.76439	5.81598	5.07732	4.46942	23.82043	20.80400	17.83639
66660	3.95649	4.16886	3.13251	16.49927	15.99801	15.28668	12.06521	9.42004	6.66050	12.88546	12.26276	11.37059	5.66155	4.93881	4.41704	23.49128	20.62442	17.41356
66830	3.80716	3.99134	2.91732	16.64860	15.26324	14.53185	11.78636	9.21898	6.34540	12.39911	11.79760	10.72640	5.45839	4.83484	4.30436	22.80678	19.97593	17.09181
66990	3.69345	3.80396	2.70657	15.66633	14.97264	14.09667	11.72540	9.18618	6.23659	11.88147	11.58917	10.47771	5.56883	4.69700	4.13045	22.85860	19.95894	16.86367
67160	3.54771	3.78968	2.78261	15.91884	15.15317	14.24007	11.72056	9.20574	6.19316	11.93070	11.67619	10.58999	5.41124	4.64434	4.10510	22.84006	20.31926	16.92487	26.11	6.1	0.00	7.30	0.01273	0.01290	0.01664	0.00771	0.00574	0.00630	0.00468	0.01266	0.01686	0.00670	0.00682	0.00882	0.01490	0.01096	0.01197	0.00216	0.00612	0.00859
67320	3.54752	3.89424	2.77140	15.95583	15.14691	14.39259	12.14895	9.11121	6.27466	12.87408	12.04492	10.79002	5.43556	4.69789	4.22736	22.99011	20.24674	17.38689
67480	3.45825	3.69479	2.71369	15.97175	15.09717	14.09483	11.69152	9.25638	6.27808	12.11805	11.68806	10.84563	5.53105	4.79937	4.32808	22.75118	20.23950	17.30894
67650	3.53439	4.08653	2.77326	16.52600	15.27668	14.56348	11.79700	9.44302	6.23760	12.32151	11.58514	10.72353	5.91019	5.20862	4.27315	22.69333	20.19191	17.23200
67810	3.47735	3.77329	2.78651	16.12552	15.29247	14.22603	11.76342	9.22554	6.35203	11.85071	11.62961	10.82389	5.50705	4.78879	4.14510	23.08343	20.31956	17.17575
67980	3.53150	3.76511	2.61538	16.16081	15.27892	14.28212	11.84408	9.34840	6.25360	12.70222	11.88538	10.69891	5.49980	4.78030	4.19359	23.01195	20.28971	17.53950
68140	3.46298	3.72769	2.61674	16.21873	15.29596	14.29340	11.67950	9.23921	6.42172	12.05581	11.95933	10.78525	5.42421	4.65804	4.18575	22.92750	20.08157	17.26233
68300	3.65008	3.87500	2.80136	16.17042	15.33688	14.52299	11.84401	9.24619	6.39731	12.18123	11.80613	11.00756	5.56774	4.74648	4.21736	23.40161	20.30438	17.03114
68470	3.62230	3.88430	2.78214	16.26701	15.21523	14.52929	11.87267	9.27572	6.31635	12.10500	11.78692	10.83542	5.45072	4.73767	4.19146	22.97320	20.05505	16.95817
68630	3.56524	3.80893	2.86022	16.20703	15.21955	14.57727	11.76625	9.22916	6.25262	11.99171	11.46750	10.50093	5.37621	4.61443	4.07851	22.62711	19.99457	16.96701
68800	3.40854	3.60548	2.55753	15.85932	14.85419	14.30363	11.60630	9.18738	6.16627	12.03868	11.63430	10.65968	5.36323	4.59974	4.21928	22.54604	19.76347	16.51769	26.17	6.1	0.00	7.34	0.01273	0.01290	0.01664	0.00771	0.00574	0.00630	0.00468	0.01266	0.01686	0.00670	0.00682	0.00882	0.01490	0.01096	0.01197	0.00216	0.00612	0.00859
68960	3.51146	3.64151	2.72639	15.52345	14.69113	14.17458	11.82575	8.99702	6.27416	11.61305	11.36175	10.75177	5.47864	4.82029	4.12195	22.52484	19.95768	16.79509
69120	3.46676	3.81830	2.74270	16.61172	15.41904	14.29184	11.80386	9.09601	6.22177	11.98817	11.76427	11.22342	5.45947	4.69286	4.18939	23.11495	20.12981	17.09406
69290	3.50806	3.87845	2.71562	16.02382	15.08692	14.32910	12.34738	9.50256	6.60896	12.00244	11.89423	10.86171	5.59998	4.87284	4.38398	22.97510	20.29039	17.05726
69450	3.63858	3.87274	2.80227	16.34106	15.37144	14.48585	11.67943	9.53335	6.41389	11.95896	12.46392	11.11004	5.50299	4.69419	4.17452	23.36938	20.19299	18.13451
69610	3.90984	3.93791	2.73146	16.29923	15.42377	14.81660	11.81200	9.10985	6.20497	12.34921	11.98511	10.98372	5.41888	4.71151	4.17858	23.10392	20.67405	17.38477
69780	3.48401	3.61621	2.71312	16.51239	15.54335	14.56743	11.79081	9.17447	6.23122	12.19132	11.69564	10.86913	5.46330	4.76773	4.38991	23.20903	20.50204	17.23245
69940	3.69438	3.79318	2.67405	16.13149	15.24900	14.57061	11.80684	9.42283	6.48794	12.27256	11.79334	10.82366	5.45165	4.86126	4.24951	23.11001	20.30596	17.85559
70110	3.63382	3.76778	2.72750	16.37598	15.81378	15.04263	11.74472	9.19756	6.61353	12.18521	11.90324	10.83033	5.58245	4.95187	4.42175	23.36860	20.40740	17.18958
70270	3.52878	3.73004	2.79355	16.12988	15.27226	14.51933	11.91023	9.44264	6.35365	12.28681	12.37243	10.95411	5.55400	5.02675	4.25053	23.55738	20.46647	17.47007
70440	3.65175	3.97148	2.74323	16.60772	15.74538	14.84552	11.88934	9.25889	6.37567	12.30597	11.97723	10.98962	5.58853	4.81688	4.23058	23.79762	20.39333	17.45121	26.17	5.9	0.00	7.35	0.01273	0.01290	0.01664	0.00771	0.00574	0.00630	0.00468	0.01266	0.01686	0.00670	0.00682	0.00882	0.01490	0.01096	0.01197	0.00216	0.00612	0.00859
70600	3.60474	3.82984	2.76616	16.34309	15.58377	14.91413	11.97572	9.38056	6.48926	12.86128	12.06520	11.19345	5.66097	4.79148	4.32037	23.41540	20.28813	17.38326
70760	3.57282	3.83677	2.78405	16.27468	15.52041	14.76809	11.80518	9.42788	6.33795	12.26005	12.25621	11.03068	5.79241	4.94167	4.50611	23.48033	21.09224	17.60183
70930	3.64033	3.87378	2.76505	16.49284	15.38565	14.58980	12.05054	9.35413	6.30972	12.40341	11.67773	10.78723	5.55183	4.79960	4.21403	23.00688	20.31878	17.12109
71090	3.50785	3.73749	2.66577	16.51299	15.27452	14.66194	11.73632	9.34412	6.46091	12.38982	11.77894	11.01089	5.52099	4.81511	4.37423	23.47520	20.71326	17.61711
71250	3.75487	4.01861	2.76538	16.42833	15.65586	15.14436	11.88776	9.96233	6.58033	12.61816	12.38392	11.50237	5.86875	5.08745	4.43752	23.21540	20.91007	17.61426
71420	3.86723	4.01641	3.05030	17.18566	15.88829	15.00137	12.41208	9.55399	6.83797	12.47499	12.37749	11.31308	5.83999	5.00992	4.28370	23.53775	20.79324	17.56998
71580	3.82145	4.13193	2.85550	17.27022	15.88789	15.83010	12.06639	9.36842	6.48646	12.53093	12.15826	11.21541	5.62790	4.87579	4.46565	23.91486	20.77794	17.59688
71750	3.74029	3.92093	2.80561	16.96320	15.47607	14.94805	11.90229	9.49114	6.42917	12.75237	12.27451	11.28477	5.68124	4.86485	4.23674	23.82414	20.97530	18.44399
71910	3.78414	3.99980	2.94438	16.77199	15.93775	14.84009	12.07811	9.52467	6.44446	12.75867	12.38323	11.08697	5.81562	5.13230	4.52727	23.62549	20.86562	17.58605
72080	3.66723	3.90937	2.84802	16.52675	15.84880	15.10673	12.21998	9.54474	6.98036	12.43153	12.17601	11.07950	5.64840	4.87358	4.43516	23.70598	20.65259	17.76479	26.17	6.1	0.00	7.37	0.01273	0.01290	0.01664	0.00771	0.00574	0.00630	0.00468	0.01266	0.01686	0.00670	0.00682	0.00882	0.01490	0.01096	0.01197	0.00216	0.00612	0.00859
72240	3.59666	3.96128	2.88164	16.37275	15.47378	14.47827	11.99624	9.28623	6.50060	12.46840	12.15091	11.04409	5.56467	4.82490	4.32298	24.10718	20.68468	17.49564
72400	3.61291	3.81190	2.70742	16.88365	16.13077	15.08833	11.80938	9.28797	6.53055	12.50536	11.86709	10.86619	5.55429	4.82009	4.24372	23.44573	20.54812	17.46310
72570	3.67544	3.90849	2.89613	16.72566	15.68815	14.71491	11.83876	9.39483	6.43498	12.67376	12.05093	11.08291	5.60019	4.83342	4.28227	23.77241	20.50902	17.28140
72730	3.69539	3.93794	2.94323	16.09559	15.77073	14.69711	12.01931	9.32721	6.31201	12.24949	11.97985	11.04732	5.46179	4.78381	4.18300	23.28418	20.42369	17.27865
72890	3.47868	3.73740	2.75117	16.88251	15.40814	14.54580	11.89010	9.27436	6.40481	12.23791	11.82649	10.79437	5.54416	4.83284	4.27757	23.27412	20.46824	17.61220
73060	3.62465	3.74675	2.62630	16.20904	15.39298	14.37674	11.77614	9.22232	6.21078	12.02387	12.01835	10.77827	5.38231	4.89254	4.18245	23.05459	20.10122	17.14360
73220	3.55848	3.70597	2.69639	16.58558	15.83690	14.47113	11.71413	9.08879	6.19219	12.09030	11.59435	10.89653	5.31132	4.57426	4.15783	22.94922	20.13875	17.03687
73390	3.55926	3.66589	2.62102	16.00107	15.12407	14.25601	11.75221	9.03021	6.16877	11.99982	11.66879	10.81363	5.35278	4.73859	4.08461	22.79175	20.09721	17.00866
73550	3.41731	3.70515	2.66879	15.97179	15.14061	14.45955	11.74857	9.29059	6.28758	12.05016	11.85428	11.04593	5.40564	4.68723	4.16782	23.53504	20.22266	17.16051
73720	3.48162	3.76263	2.75402	16.34255	15.59479	14.64429	11.88638	9.57453	6.48744	12.40974	11.95841	11.14868	5.43902	4.76637	4.17328	23.46108	20.72567	17.53996	26.17	6.1	0.00	7.31	0.01273	0.01290	0.01664	0.00771	0.00574	0.00630	0.00468	0.01266	0.01686	0.00670	0.00682	0.00882	0.01490	0.01096	0.01197	0.00216	0.00612	0.00859
73880	3.63620	3.86116	2.81555	16.45307	15.63761	14.95532	12.18370	9.46373	6.46355	12.89637	12.24803	11.13948	5.69683	4.98368	4.40704	23.62599	21.20723	17.81064
74040	3.64631	3.90813	2.84441	16.73875	15.83910	14.98524	12.36538	9.43162	6.37784	13.27400	12.21691	11.24649	5.65897	4.93917	4.29838	23.77290	20.77306	17.34938
74210	3.59940	3.92159	2.78087	16.68041	15.45053	14.52747	11.94152	9.55772	6.39723	12.69516	12.66167	11.38038	5.64405	4.75119	4.18225	23.20353	20.51629	17.52611
74370	3.60098	3.84683	2.69497	16.52284	15.78711	14.77278	11.85476	9.19493	6.25155	12.37868	12.03680	10.75005	5.51325	4.67238	4.14831	23.22545	20.35013	17.38172
74530	3.48813	3.71431	2.65598	16.25185	15.38246	14.53247	11.69732	9.19830	6.37631	12.25352	11.88856	11.00956	5.35816	4.94658	4.23591	23.52513	20.53874	17.60314
74700	3.51857	3.86783	2.80154	16.67497	15.56379	14.46429	11.94220	9.21486	6.26247	12.28290	11.75360	10.82569	5.41616	4.88007	4.40072	24.10232	20.59748	17.57092
74860	3.55203	3.81120	2.80535	16.70062	15.33753	14.46316	12.07402	9.27398	6.26327	12.57765	12.14626	10.75663	5.52883	4.91056	4.43111	23.01406	20.21871	17.32595
75020	3.48659	3.95404	2.78501	16.16581	15.02314	14.59812	11.70012	9.29811	6.72947	12.37757	11.84543	10.66162	5.45040	4.76016	4.08883	22.96932	20.41907	17.14742
75190	3.61095	3.72588	2.69303	16.32465	15.99614	15.11716	11.92875	9.24651	6.33563	12.46706	11.80209	10.51590	5.47182	4.73865	4.28203	22.89828	20.22277	17.29824
75350	3.54196	3.76139	2.70905	16.23235	15.53945	14.23098	11.88625	9.22831	6.38767	13.04599	12.46862	11.31568	5.46319	4.61530	4.23039	23.14512	20.45746	17.64424	26.17	6.2	0.00	7.37	0.01273	0.01290	0.01664	0.00771	0.00574	0.00630	0.00468	0.01266	0.01686	0.00670	0.00682	0.00882	0.01490	0.01096	0.01197	0.00216	0.00612	0.00859
75510	3.46117	3.67942	2.65928	16.24285	15.15817	14.50881	11.83844	9.66755	6.50424	12.19859	11.78698	10.85430	5.52667	4.65290	4.16093	23.01761	20.38483	17.32309
75680	3.53437	3.89465	2.60295	16.11798	15.22496	14.69910	11.64109	9.14789	6.29110	12.43077	11.90028	10.82575	5.42585	4.68623	4.16287	23.10396	20.30393	17.03533
75840	3.52653	3.64919	2.69903	16.06159	15.36259	14.05671	11.86131	9.26113	6.50760	12.27306	11.72798	10.80865	5.56241	5.08910	4.15175	23.05123	20.04036	17.08724
76000	3.47159	3.71810	2.75092	16.18468	15.30110	14.64899	11.87497	9.26484	6.31591	12.15650	11.71879	10.87759	5.54477	4.77250	4.43354	23.25921	20.57833	17.53813
76170	3.58531	3.81015	2.77960	16.47489	15.36666	14.89298	11.76214	9.29311	6.33190	12.25808	11.95442	10.83879	5.56673	4.91540	4.27863	23.59350	20.57310	17.28870
76330	3.67052	3.84510	2.81761	16.42533	15.78277	15.23318	12.27467	9.38963	6.45601	12.66900	11.97694	11.28059	5.76948	4.84399	4.23346	23.53693	21.13528	17.47530
76490	3.61800	3.76627	2.94029	16.29285	15.44181	14.63904	11.85928	9.24295	6.42581	12.50667	12.62916	11.27748	5.45784	4.76259	4.25144	23.35470	20.66728	17.56300
76660	3.64926	3.83951	2.75398	16.59465	15.53588	15.26798	11.84556	9.08241	6.41463	13.19452	12.52405	11.13251	5.49508	4.75753	4.15496	23.38400	20.53675	17.44354
76820	3.51180	3.77432	2.74670	16.55222	15.76683	14.66359	11.76355	9.21176	6.21835	12.36692	12.02482	10.99945	5.45996	4.75382	4.14343	23.35977	20.61307	17.90422
76980	3.55270	3.75777	2.76255	16.38092	15.46818	14.53748	12.05455	9.35404	6.36260	12.36546	12.00591	11.16327	5.96545	4.84098	4.20390	23.38213	20.43472	17.27298	26.17	6.1	0.00	7.33	0.01273	0.01290	0.01664	0.00771	0.00574	0.00630	0.00468	0.01266	0.01686	0.00670	0.00682	0.00881	0.01490	0.01096	0.01197	0.00216	0.00612	0.00859
77150	3.57895	3.95528	2.63667	16.46995	15.61766	14.57396	11.78810	9.09723	6.24917	12.18632	11.85871	10.98915	5.48549	4.76123	4.25631	23.10182	20.34769	17.18887
77310	3.57259	3.82125	2.63718	16.14115	15.43756	14.70842	11.60282	9.27287	6.27148	12.49321	11.84725	10.81626	5.65367	4.83637	4.27874	23.98493	20.76758	17.75309
77470	3.63530	3.70770	2.66640	16.50303	15.63498	14.58630	11.76793	9.12448	6.24019	12.47798	11.89043	10.81670	5.49160	4.97712	4.20735	23.04683	20.35672	17.41928
77640	3.64725	3.74133	2.76853	16.40541	15.58806	14.29980	11.85223	9.27335	6.47559	12.20645	11.86661	10.94119	5.61926	4.82728	4.20951	23.09383	20.04220	16.93608
77800	3.52991	3.72869	2.76810	16.15646	15.25810	14.32690	11.80174	9.19808	6.20589	12.04721	11.72074	10.67724	5.48735	4.72435	4.09518	22.94076	20.31535	16.99204
77960	3.38442	3.70109	2.65576	15.97766	14.91030	14.14857	11.68647	9.15576	6.25633	11.84411	11.72089	10.75729	5.70837	4.62909	4.06338	22.89857	19.81571	16.95551
78130	3.58199	3.75181	2.64807	16.06556	15.17852	14.19376	11.86746	9.13430	6.20445	12.36479	11.62087	10.82645	5.48843	4.68920	4.09807	23.04268	20.23431	17.50338
78290	3.42446	3.70820	2.61723	16.11055	15.35798	14.32266	11.59499	9.24362	6.17626	12.30674	11.84303	10.69301	5.55242	4.65953	4.17783	23.05629	20.05057	16.99224
78450	3.44380	3.74607	2.71538	15.78295	15.07638	14.31023	11.67298	9.13329	6.26395	12.90990	11.60565	10.57079	5.34847	4.59073	3.97574	22.59980	19.68655	16.89460
78620	3.40560	3.65535	2.66250	15.94323	15.00972	14.10776	11.50544	9.13634	6.13839	12.19975	11.85661	10.58868	5.45983	4.81140	4.18953	22.83923	19.95359	17.01670	26.23	6.2	0.00	7.36	0.01273	0.01290	0.01664	0.00771	0.00574	0.00630	0.00468	0.01266	0.01686	0.00670	0.00682	0.00881	0.01490	0.01096	0.01197	0.00216	0.00611	0.00859
78780	3.71695	3.85717	2.77542	16.22624	15.38450	14.56859	12.09664	9.22969	6.42172	12.07843	11.58733	11.23777	5.56893	4.84699	4.67267	23.09049	20.29489	17.45578
78940	3.88694	4.14975	2.93371	15.97500	15.51314	14.58835	11.92939	9.39929	6.41259	12.35118	12.08883	11.23141	5.55709	4.93898	4.14859	23.23354	20.45732	17.47790
79100	3.56754	3.80939	2.67979	16.39362	15.61025	14.79061	11.92100	9.29959	6.27382	12.24602	11.67119	10.96579	5.59390	4.73091	4.26195	23.39040	20.68999	17.02549
79270	3.52380	3.71218	2.74125	16.20849	15.72637	14.76741	11.92493	9.34897	6.23985	12.20793	12.31862	11.09863	5.62922	4.80993	4.19296	23.97415	20.68583	16.89319
79430	3.58974	3.73129	2.68393	16.02059	15.51874	14.59459	11.67004	9.11275	6.29397	12.38264	11.89294	11.00962	5.49487	4.68313	4.26552	23.19433	20.47082	17.50586
79590	3.54095	3.77624	2.77494	16.27642	15.36887	14.63726	11.76786	9.32001	6.34674	12.63284	11.92990	10.67626	5.45512	4.72368	4.11152	23.06925	20.29639	16.93787
79760	3.49981	3.68161	3.18102	16.34322	15.35659	14.49048	11.94784	9.28477	6.43565	11.94364	11.81308	11.23751	5.66695	4.75983	4.41448	23.05864	20.69061	18.28529
79920	3.65322	3.74714	2.64438	16.08855	15.20319	14.48307	11.81272	9.21949	6.18784	12.12183	11.88483	10.88713	5.36082	4.65691	4.14579	23.18512	20.21064	17.30568
80080	3.46573	3.89939	2.72199	16.16817	15.35577	14.64974	11.69739	9.23572	6.47821	12.20793	11.66363	10.59565	5.52812	4.80062	4.20022	23.20546	20.16238	17.53301
80250	3.43870	3.86706	2.81814	16.15869	15.33227	14.33520	11.71813	9.15494	6.17703	12.02164	11.70153	10.92014	5.48568	4.87041	4.17831	23.33999	20.18534	17.26366	26.23	6.1	0.00	7.44	0.01273	0.01290	0.01664	0.00771	0.00574	0.00630	0.00468	0.01266	0.01686	0.00670	0.00682	0.00881	0.01490	0.01096	0.01197	0.00216	0.00612	0.00859
80410	3.62017	3.78558	2.75612	16.17929	15.21562	14.39330	11.93011	9.35000	6.32517	12.29157	11.97015	10.94287	5.44638	4.75974	4.24357	23.60469	20.95327	17.31785
80580	3.53452	3.76686	2.83269	16.46649	15.72156	14.80472	11.86593	9.26803	6.33883	12.48377	12.00962	10.99033	5.50691	4.75817	4.18688	23.38447	20.34148	17.39315
80740	3.49892	3.72541	2.69484	16.29858	15.43684	14.56506	11.75720	9.31335	6.56178	12.66547	11.80434	10.82899	5.56155	4.79202	4.31295	23.16172	20.31225	17.43432
80900	3.72804	3.86511	2.94598	16.46905	15.58306	14.69110	11.94993	9.49329	6.28738	11.96237	11.96026	10.90722	5.58352	4.73232	4.32050	23.01744	20.33506	17.48799
81070	3.62590	3.86629	2.75303	16.44774	15.09768	14.41288	11.84021	9.25150	6.31633	12.80366	11.75106	10.62033	5.44290	4.85523	4.15020	23.24698	20.07016	17.38310
81230	3.59828	3.59198	2.70886	16.23025	15.24152	14.89095	11.70822	8.96931	6.22210	11.91375	11.73904	10.76932	5.52616	4.69269	4.19559	22.68162	20.90183	16.91406
81400	3.37321	3.67280	2.60308	16.07183	15.42857	14.40393	11.52941	9.15711	6.39707	12.14589	11.82267	11.33194	5.59701	4.76831	4.19011	23.07604	20.22539	17.21705
81560	3.49847	3.88800	2.79156	16.69057	15.19908	14.25558	11.80067	9.26746	6.36497	11.84643	11.79828	10.90859	5.49435	4.72746	4.21158	23.42797	20.70970	17.20941
81720	3.54646	3.81917	2.70110	15.87358	15.00637	14.22717	11.54619	9.10560	6.17185	11.84654	11.49266	10.65012	5.50049	4.68356	4.24557	23.02913	20.20480	16.94966
81890	3.49592	3.80481	2.66323	16.27970	15.62521	14.92136	11.80546	9.25144	6.35675	12.23905	12.16418	10.82737	5.57798	4.82629	4.32705	23.53995	20.50230	17.28828	26.23	6.1	0.00	7.43	0.01273	0.01290	0.01664	0.00771	0.00574	0.00630	0.00468	0.01266	0.01686	0.00670	0.00682	0.00881	0.01490	0.01096	0.01197	0.00216	0.00612	0.00859
82060	3.74805	3.96530	2.81505	16.57200	15.69390	14.63503	11.86842	9.45093	6.62326	12.59107	12.07425	11.13191	5.77263	4.91011	4.31497	23.32810	20.48175	17.73910
82220	3.68511	3.89844	2.86942	16.56442	15.66634	14.80460	11.98597	9.47013	6.47338	12.61172	12.66772	11.26318	5.52569	4.84100	4.30567	23.19175	20.56380	17.73462
82380	3.85054	4.03546	2.88452	16.73630	15.75759	14.73615	11.84150	9.21013	6.37527	12.26596	11.74552	10.72919	5.68257	4.78493	4.14844	23.31605	21.32263	17.69910
82550	3.62027	3.82363	2.78314	16.29947	15.49100	14.69168	11.65128	9.24872	6.28966	12.15247	12.04561	10.92972	5.32310	4.66081	4.19785	23.04853	20.47992	17.28843
82710	3.53463	3.74019	2.76137	16.28835	15.71926	14.51230	11.72585	9.15834	6.26365	11.91663	11.77206	11.06745	5.41570	4.69046	4.08748	23.03341	20.14870	17.32749
82870	3.67658	3.81485	2.70666	16.43076	15.19811	14.59729	11.81659	9.40503	6.49965	12.09632	11.86729	10.88161	5.58727	4.70073	4.20988	23.02813	20.59994	17.53674
83040	3.51458	3.75164	2.68807	16.09726	15.24526	14.74253	11.71712	9.12039	6.29278	12.09987	11.61100	10.72204	5.42804	4.58228	4.06602	22.96155	19.96363	17.00657
83200	3.55002	3.77047	2.73720	15.84759	14.98699	13.99082	11.70056	9.12139	6.21300	11.98718	11.52262	10.56733	5.36972	4.68178	4.19469	22.80826	20.16198	17.02450
83370	3.46604	3.74565	2.81975	16.43549	15.67177	14.44071	11.53249	9.06962	6.07197	11.89934	11.50262	10.68657	5.44087	4.64718	4.14264	22.75634	19.86587	16.86512
83530	3.59864	3.73197	2.62199	16.04143	14.97250	14.22671	11.67223	9.09887	6.28724	12.55981	11.89268	10.98710	5.29995	4.59869	4.00940	23.54495	20.07651	16.88556	26.29	6.2	0.00	7.35	0.01273	0.01290	0.01663	0.00771	0.00574	0.00630	0.00468	0.01266	0.01686	0.00670	0.00682	0.00881	0.01490	0.01096	0.01197	0.00216	0.00612	0.00859
83690	3.37979	3.63999	2.61110	15.96837	15.16287	14.20996	11.69605	9.03699	6.12557	12.12037	11.63619	10.58484	5.40636	4.64308	4.13688	22.87341	20.01046	17.02080
83860	3.47677	3.66482	2.69832	16.14225	15.23156	14.45593	11.74622	9.10497	6.33761	12.02382	11.59517	11.31412	5.43157	4.61563	4.13825	23.23992	21.28043	17.86480
84020	3.55983	3.88338	2.83773	16.82995	15.52003	14.79495	11.80269	9.93026	6.83406	12.59878	12.19999	11.07698	5.67532	4.92309	4.34493	23.31813	20.78132	17.87177
84180	3.60097	3.85000	2.75874	16.60392	15.65860	15.15080	11.84037	9.29016	6.40686	12.38203	11.96269	11.05378	5.56071	4.98155	4.34548	23.65529	20.99834	17.38363
84350	3.60915	3.91880	2.77545	16.63468	15.73014	15.04601	11.78547	9.32975	6.48616	12.71095	12.01670	11.05453	5.56463	4.79210	4.30116	23.27237	20.62607	17.49562
84510	3.64767	3.95860	2.77640	16.45101	15.60188	14.91117	12.11930	9.53257	6.33688	12.33868	11.96703	11.10377	5.59216	4.87432	4.22824	23.20143	20.38514	17.24032
84670	3.65161	3.87354	2.75454	16.57040	15.61023	14.98368	11.84779	9.34070	6.20429	12.24107	12.14333	10.86852	5.44086	4.74313	4.13229	23.15085	20.58419	17.48947
