WetView ver 7.1	07-13-2018	17:07:56
AC9 Absorption and Attenuation Meter
00000266		; Serial number
2	; structure version number
Reserved
0.000000	0.000000		; Depth calibration
19200			; Baud rate
0.100000			; Path length (meters)
31			; number of temperature calibration bins
				12.59339	13.44920	14.48425	15.49668	16.50852	17.49564	18.50545	19.52458	20.50176	21.48889	22.47318	23.48707	24.50962	25.49370	26.49784	27.51372	28.50746	29.47237	30.47938	31.50214	32.50470	33.49235	34.50337	35.50914	36.50618	37.52058	38.51018	39.51308	40.49994	41.49866	42.47204	; temperature bins
a650	Blue	20.34952		-0.00383	-0.00415	-0.00430	-0.00391	-0.00363	-0.00317	-0.00269	-0.00237	-0.00179	-0.00130	-0.00099	-0.00071	-0.00015	0.00000	0.00004	-0.00001	0.00015	0.00036	0.00058	0.00101	0.00161	0.00132	0.00160	0.00169	0.00242	0.00273	0.00336	0.00365	0.00427	0.00566	0.00670		; offset and temperature correction info
a676	Green	20.51193		-0.00398	-0.00384	-0.00360	-0.00306	-0.00302	-0.00255	-0.00235	-0.00212	-0.00163	-0.00136	-0.00118	-0.00089	-0.00029	0.00000	0.00068	0.00082	0.00099	0.00137	0.00145	0.00212	0.00260	0.00252	0.00321	0.00354	0.00457	0.00535	0.00617	0.00648	0.00742	0.00887	0.01002		; offset and temperature correction info
a715	Brown	20.23230		-0.00421	-0.00394	-0.00391	-0.00291	-0.00264	-0.00192	-0.00204	-0.00179	-0.00188	-0.00239	-0.00180	-0.00187	-0.00099	0.00000	0.00084	0.00162	0.00188	0.00224	0.00321	0.00381	0.00466	0.00528	0.00588	0.00696	0.00859	0.01041	0.01148	0.01282	0.01333	0.01456	0.01617		; offset and temperature correction info
c510	Red	20.40042		-0.00261	-0.00247	-0.00258	-0.00225	-0.00203	-0.00197	-0.00199	-0.00203	-0.00154	-0.00103	-0.00069	-0.00019	-0.00007	0.00000	0.00011	-0.00021	-0.00042	-0.00056	-0.00040	0.00011	0.00036	0.00050	0.00077	0.00079	0.00050	0.00042	0.00043	0.00092	0.00147	0.00200	0.00232		; offset and temperature correction info
c532	Magenta	20.40760		-0.00248	-0.00265	-0.00278	-0.00279	-0.00296	-0.00292	-0.00238	-0.00206	-0.00129	-0.00096	-0.00092	-0.00052	-0.00009	0.00000	0.00007	-0.00049	-0.00136	-0.00107	-0.00079	-0.00065	-0.00074	-0.00105	-0.00152	-0.00192	-0.00236	-0.00269	-0.00252	-0.00233	-0.00172	-0.00128	-0.00067		; offset and temperature correction info
c555	Black	20.50654		-0.00053	-0.00063	-0.00106	-0.00094	-0.00068	-0.00055	-0.00053	-0.00039	-0.00028	-0.00025	-0.00011	-0.00035	-0.00007	0.00000	-0.00037	-0.00055	-0.00036	-0.00014	0.00019	0.00044	0.00032	0.00040	0.00050	0.00028	0.00014	0.00013	0.00030	0.00073	0.00117	0.00176	0.00241		; offset and temperature correction info
a412	LtBlue	17.15231		-0.01972	-0.01823	-0.01612	-0.01381	-0.01272	-0.01080	-0.00959	-0.00866	-0.00710	-0.00532	-0.00354	-0.00148	-0.00028	0.00000	0.00176	0.00297	0.00394	0.00440	0.00453	0.00487	0.00804	0.00856	0.01065	0.01248	0.01388	0.01439	0.01659	0.01881	0.02256	0.02450	0.02719		; offset and temperature correction info
a440	LtGreen	18.00171		-0.00729	-0.00642	-0.00581	-0.00502	-0.00426	-0.00349	-0.00244	-0.00218	-0.00179	-0.00101	-0.00046	-0.00006	0.00036	0.00000	0.00040	0.00045	0.00030	-0.00015	-0.00024	-0.00035	0.00012	-0.00013	-0.00033	-0.00089	-0.00142	-0.00189	-0.00231	-0.00205	-0.00140	-0.00140	-0.00146		; offset and temperature correction info
a488	Yellow	18.86491		-0.00113	-0.00102	-0.00106	-0.00064	-0.00027	-0.00020	-0.00030	-0.00037	-0.00047	-0.00059	-0.00052	-0.00012	0.00008	0.00000	0.00025	0.00012	-0.00013	-0.00043	-0.00065	-0.00076	-0.00025	0.00010	0.00090	0.00111	0.00113	0.00104	0.00073	0.00068	0.00120	0.00186	0.00258		; offset and temperature correction info
c650	Blue	20.46075		-0.00145	-0.00097	-0.00092	-0.00139	-0.00185	-0.00196	-0.00237	-0.00266	-0.00238	-0.00163	-0.00083	-0.00041	-0.00010	0.00000	0.00005	-0.00001	0.00015	0.00034	0.00029	0.00065	0.00101	0.00164	0.00126	0.00156	0.00175	0.00270	0.00287	0.00371	0.00407	0.00473	0.00534		; offset and temperature correction info
c676	Green	20.10118		-0.00170	-0.00144	-0.00149	-0.00177	-0.00188	-0.00194	-0.00198	-0.00196	-0.00177	-0.00156	-0.00140	-0.00091	-0.00033	0.00000	0.00050	0.00092	0.00110	0.00141	0.00167	0.00199	0.00216	0.00265	0.00269	0.00289	0.00315	0.00374	0.00367	0.00408	0.00486	0.00561	0.00646		; offset and temperature correction info
c715	Brown	19.91219		-0.01201	-0.01097	-0.00859	-0.00680	-0.00651	-0.00592	-0.00535	-0.00440	-0.00387	-0.00303	-0.00222	-0.00153	-0.00028	0.00000	0.00093	0.00149	0.00247	0.00322	0.00330	0.00427	0.00373	0.00464	0.00536	0.00551	0.00643	0.00733	0.00779	0.00884	0.00899	0.01021	0.01120		; offset and temperature correction info
a510	Red	19.21192		0.00201	0.00193	0.00158	0.00098	0.00089	0.00049	0.00011	-0.00016	-0.00016	-0.00005	0.00028	0.00025	0.00006	0.00000	0.00035	-0.00022	-0.00023	-0.00080	-0.00144	-0.00154	-0.00153	-0.00204	-0.00220	-0.00219	-0.00190	-0.00128	-0.00069	-0.00018	0.00068	0.00152	0.00241		; offset and temperature correction info
a532	Magenta	19.41084		-0.00097	-0.00072	-0.00060	-0.00081	-0.00062	-0.00071	-0.00040	0.00020	0.00028	0.00043	0.00000	-0.00035	0.00007	0.00000	-0.00011	-0.00059	-0.00080	-0.00098	-0.00137	-0.00162	-0.00163	-0.00130	-0.00073	-0.00018	0.00090	0.00185	0.00175	0.00247	0.00291	0.00327	0.00349		; offset and temperature correction info
a555	Black	19.69776		0.00171	0.00183	0.00183	0.00186	0.00191	0.00170	0.00115	0.00131	0.00097	0.00073	0.00060	0.00013	0.00015	0.00000	0.00014	-0.00029	-0.00066	-0.00082	-0.00116	-0.00139	-0.00134	-0.00167	-0.00119	-0.00093	-0.00048	0.00053	0.00111	0.00095	0.00178	0.00206	0.00273		; offset and temperature correction info
c412	LtBlue	19.91180		-0.02051	-0.01853	-0.01589	-0.01311	-0.01059	-0.00877	-0.00705	-0.00581	-0.00413	-0.00231	-0.00098	-0.00066	-0.00011	0.00000	-0.00013	-0.00085	-0.00170	-0.00170	-0.00302	-0.00330	-0.00429	-0.00551	-0.00626	-0.00775	-0.00978	-0.01181	-0.01113	-0.01108	-0.01116	-0.01192	-0.01291		; offset and temperature correction info
c440	LtGreen	20.06241		-0.01064	-0.00992	-0.00892	-0.00766	-0.00639	-0.00531	-0.00478	-0.00384	-0.00287	-0.00187	-0.00102	-0.00063	-0.00023	0.00000	-0.00007	-0.00053	-0.00090	-0.00119	-0.00169	-0.00197	-0.00226	-0.00257	-0.00260	-0.00289	-0.00394	-0.00470	-0.00481	-0.00493	-0.00520	-0.00580	-0.00620		; offset and temperature correction info
c488	Yellow	20.35984		-0.01125	-0.01082	-0.00966	-0.00833	-0.00726	-0.00661	-0.00579	-0.00500	-0.00389	-0.00278	-0.00167	-0.00113	-0.00041	0.00000	0.00055	0.00121	0.00187	0.00226	0.00222	0.00251	0.00281	0.00359	0.00414	0.00427	0.00401	0.00404	0.00486	0.00563	0.00638	0.00684	0.00718		; offset and temperature correction info
0.003500	0.004000	0.015000	0.020000	0.015000	0.020000	2500.000000	2000.000000	1000.000000	; maxANoise	maxCNoise	maxADifference	maxCDifference	minACounts	minCCounts	minRCounts	maxTempSdev	maxDepthSdev
0			; auxilliary capabilities
1			; acquisition binsize
0	0.06565	0.07565	0.05273	10.27245	10.49210	10.46499	0.64594	0.37927	0.21027	10.33407	11.00377	10.05794	0.16901	0.16077	0.12581	9.37472	9.74453	10.04089	32.64	6.1	0.00	7.61	0.01265	0.01289	0.01618	0.00785	0.00583	0.00640	0.00467	0.01264	0.01677	0.00679	0.00697	0.00876	0.01486	0.01091	0.01193	0.00220	0.00624	0.00872
160	0.06972	0.08081	0.05660	10.29213	10.49108	10.46782	0.65831	0.38866	0.21603	10.30048	10.98295	10.05982	0.16772	0.15796	0.12202	9.35897	9.71664	10.00925
320	0.06804	0.07912	0.05714	10.26947	10.47343	10.45565	0.66363	0.38485	0.21751	10.33053	11.00839	10.06542	0.16865	0.15757	0.12140	9.39674	9.76329	10.06024
490	0.06814	0.08053	0.05661	10.29036	10.49347	10.46754	0.65384	0.38142	0.21425	10.32512	10.98625	10.05451	0.16562	0.15797	0.11733	9.34635	9.72115	10.00574
650	0.06814	0.07983	0.05508	10.27262	10.46261	10.45899	0.65764	0.38311	0.21598	10.31591	11.00836	10.06496	0.16822	0.16097	0.12092	9.39135	9.75518	10.05716
810	0.06774	0.08189	0.05721	10.29581	10.50219	10.46720	0.65200	0.38217	0.21356	10.32712	10.99812	10.04760	0.16601	0.15631	0.12196	9.36104	9.72176	10.02760
980	0.06926	0.08246	0.05755	10.24239	10.46291	10.45006	0.65355	0.38732	0.21592	10.32285	10.98556	10.03099	0.16732	0.15932	0.12207	9.38265	9.75607	10.05477
1140	0.06979	0.07831	0.05695	10.31107	10.51734	10.48523	0.65310	0.38163	0.21366	10.35224	10.99602	10.06229	0.16375	0.15576	0.11917	9.35670	9.72556	10.00629
1300	0.07028	0.07900	0.05748	10.26275	10.45581	10.45258	0.65708	0.38575	0.21610	10.30649	10.99079	10.03355	0.16610	0.15781	0.11864	9.37717	9.74459	10.02687
1470	0.06968	0.07877	0.05492	10.25790	10.47074	10.46168	0.65570	0.38529	0.21420	10.31951	10.99916	10.05563	0.16537	0.15607	0.12014	9.37189	9.74997	10.05319
1630	0.07115	0.08336	0.05876	10.30333	10.49273	10.48725	0.66126	0.38790	0.21697	10.33709	11.02478	10.07471	0.16876	0.15929	0.12183	9.39549	9.73503	10.04359	32.64	6.1	0.00	7.66	0.01264	0.01289	0.01618	0.00785	0.00583	0.00640	0.00467	0.01264	0.01677	0.00679	0.00697	0.00876	0.01486	0.01091	0.01193	0.00220	0.00624	0.00872
1790	0.06923	0.08012	0.05631	10.28542	10.48591	10.44411	0.64573	0.38526	0.21445	10.30788	10.96261	10.00831	0.16703	0.15746	0.11768	9.30828	9.68810	9.98954
1960	0.07031	0.07881	0.05782	10.25488	10.47792	10.49672	0.66426	0.38748	0.21801	10.37397	11.06426	10.10551	0.16844	0.16034	0.12117	9.43597	9.78279	10.08032
2120	0.06974	0.07822	0.05508	10.30228	10.50647	10.47161	0.65616	0.38221	0.21350	10.32921	10.97652	10.03918	0.16352	0.15641	0.12149	9.32283	9.68793	9.98448
2280	0.06848	0.07752	0.05209	10.21839	10.42901	10.42185	0.65785	0.38286	0.21150	10.29869	11.00019	10.07367	0.16691	0.16014	0.12346	9.42771	9.78764	10.09382
2450	0.07038	0.08057	0.05631	10.33493	10.55515	10.52323	0.65655	0.38430	0.21373	10.37327	11.00619	10.05447	0.16768	0.15758	0.12089	9.34530	9.68604	9.97889
2610	0.06978	0.08048	0.05751	10.20255	10.43436	10.42759	0.65142	0.38355	0.21501	10.31106	10.99978	10.07066	0.16503	0.15896	0.12078	9.42771	9.80600	10.10264
2770	0.07054	0.08012	0.05785	10.37898	10.55511	10.55428	0.65557	0.38332	0.21351	10.37144	11.05376	10.09252	0.16850	0.16033	0.12387	9.38897	9.74227	10.03215
2940	0.07171	0.08284	0.05592	10.26683	10.47160	10.44204	0.66055	0.38442	0.21562	10.31001	10.97521	10.03995	0.16708	0.15887	0.11965	9.35867	9.71320	10.01293
3100	0.06750	0.07863	0.05618	10.27987	10.49952	10.48848	0.65652	0.38197	0.21268	10.35903	11.03300	10.07792	0.16721	0.15990	0.12402	9.37943	9.75312	10.06051
3270	0.07129	0.08110	0.05761	10.30034	10.49324	10.46096	0.65663	0.38374	0.21533	10.33324	10.94502	10.05806	0.16616	0.15913	0.12267	9.26965	9.72965	9.86997	32.64	6.3	0.00	7.68	0.01264	0.01289	0.01618	0.00785	0.00583	0.00640	0.00467	0.01264	0.01677	0.00679	0.00697	0.00876	0.01486	0.01091	0.01193	0.00220	0.00624	0.00872
3430	0.06911	0.08127	0.05633	10.20208	10.39968	10.44768	0.65224	0.38309	0.21247	10.38888	10.98191	10.11671	0.17015	0.16144	0.12303	9.39155	9.83204	10.09959
3590	0.07470	0.08290	0.05785	10.33471	10.52792	10.47856	0.66530	0.38476	0.21737	10.25294	10.92729	9.97669	0.16811	0.16190	0.12319	9.37719	9.72615	10.02200
3750	0.07221	0.08167	0.05652	10.25936	10.44482	10.44169	0.65342	0.38369	0.21495	10.33046	11.00846	10.08228	0.16598	0.15934	0.12055	9.35511	9.77172	10.01926
3920	0.07163	0.07958	0.05711	10.27212	10.45592	10.46093	0.65177	0.38400	0.21353	10.34326	11.06727	10.10539	0.16487	0.15756	0.11880	9.37322	9.68708	10.00930
4080	0.06806	0.07802	0.05495	10.27204	10.58366	10.51530	0.65531	0.37770	0.21075	10.41284	11.05968	10.08264	0.16745	0.16060	0.12598	9.39372	9.79190	10.09692
4250	0.07288	0.08032	0.05621	10.38314	10.55173	10.50790	0.65170	0.38542	0.21409	10.29777	10.98996	10.01771	0.16616	0.15744	0.11943	9.38597	9.80534	10.08833
4410	0.06967	0.08102	0.05925	10.34871	10.48354	10.48065	0.65710	0.38199	0.21396	10.32696	10.98494	10.05095	0.16680	0.15770	0.12085	9.33093	9.70648	10.02750
4570	0.06578	0.07806	0.05593	10.29829	10.54989	10.50153	0.65688	0.38348	0.21222	10.36608	11.05424	10.10424	0.16528	0.15465	0.11896	9.38125	9.71774	9.99666
4740	0.07032	0.08124	0.05679	10.25922	10.43807	10.43489	0.65496	0.38395	0.21516	10.29316	10.99282	10.03197	0.16587	0.16076	0.12274	9.34607	9.72541	10.05170
4900	0.07056	0.07994	0.05564	10.30443	10.51363	10.49948	0.64889	0.38258	0.21408	10.37688	11.06173	10.10996	0.16470	0.15810	0.12099	9.39550	9.76494	10.03278	32.69	6.0	0.00	7.83	0.01264	0.01289	0.01618	0.00785	0.00583	0.00640	0.00467	0.01264	0.01677	0.00679	0.00697	0.00876	0.01486	0.01091	0.01193	0.00220	0.00624	0.00872
5060	0.06858	0.08044	0.05733	10.26894	10.43487	10.41810	0.65706	0.38578	0.21450	10.23688	10.94184	9.98278	0.16512	0.15983	0.12081	9.33231	9.72890	10.04854
5230	0.06843	0.08013	0.05653	10.33135	10.53817	10.51523	0.64963	0.38119	0.21155	10.39365	11.04591	10.10973	0.16568	0.15783	0.12084	9.37131	9.72554	10.01050
5390	0.07115	0.07911	0.05837	10.24727	10.45438	10.44587	0.65365	0.38629	0.21641	10.30404	10.97281	10.02517	0.17035	0.15971	0.12226	9.35047	9.71872	10.02097
5550	0.06848	0.07833	0.05651	10.26519	10.49617	10.47631	0.65353	0.38314	0.21289	10.36017	11.03958	10.09776	0.16335	0.15862	0.11934	9.40961	9.74825	10.03814
5720	0.06898	0.07919	0.05723	10.27415	10.47150	10.44852	0.65799	0.38641	0.21629	10.29699	10.96062	10.01401	0.16774	0.15817	0.12002	9.34520	9.72537	10.02476
5880	0.07002	0.08024	0.05616	10.27341	10.48585	10.46583	0.65679	0.38282	0.21330	10.34799	11.01422	10.08129	0.16533	0.15673	0.12102	9.37849	9.75387	10.04998
6040	0.06908	0.07540	0.05432	10.29516	10.48612	10.46730	0.64720	0.37873	0.20918	10.30363	10.96323	10.01216	0.16704	0.16071	0.12385	9.32094	9.70011	10.00317
6210	0.07055	0.07996	0.05880	10.26778	10.48358	10.46590	0.65755	0.38306	0.21462	10.35470	11.03131	10.09528	0.16831	0.15976	0.12262	9.41786	9.78630	10.08526
6370	0.07081	0.08151	0.05903	10.33196	10.51025	10.49264	0.65066	0.38632	0.21451	10.30926	10.98395	9.99308	0.16662	0.16013	0.12252	9.30517	9.66690	9.96786
6530	0.06882	0.07660	0.05421	10.22920	10.44932	10.44932	0.65172	0.38386	0.21192	10.33639	11.01884	10.08935	0.16599	0.15921	0.12333	9.40792	9.78060	10.07447	32.64	6.1	0.00	7.67	0.01264	0.01289	0.01618	0.00785	0.00583	0.00640	0.00467	0.01264	0.01677	0.00679	0.00697	0.00876	0.01486	0.01091	0.01193	0.00220	0.00624	0.00872
6700	0.06744	0.08100	0.05482	10.32379	10.52542	10.50517	0.64934	0.38252	0.21356	10.32367	11.00081	10.03438	0.16441	0.15822	0.11932	9.34267	9.69465	10.00836
6860	0.06881	0.07771	0.05489	10.24577	10.45389	10.43605	0.65520	0.38305	0.21226	10.32214	10.99653	10.06770	0.16353	0.15716	0.11795	9.39750	9.76968	10.06329
7020	0.06644	0.07712	0.05718	10.30947	10.50247	10.48817	0.65913	0.38682	0.21934	10.31008	10.98246	10.03352	0.16879	0.16328	0.12375	9.36029	9.70702	9.99746
7190	0.06927	0.08041	0.05843	10.25253	10.46984	10.45208	0.65633	0.38218	0.21242	10.32597	11.00008	10.07134	0.16479	0.15824	0.11943	9.39457	9.77159	10.08313
7350	0.06811	0.07832	0.05711	10.33721	10.52934	10.51692	0.66112	0.38705	0.21719	10.33285	11.00298	10.04057	0.16823	0.15917	0.12292	9.34719	9.68207	9.98038
7510	0.07083	0.07800	0.05425	10.21830	10.43209	10.41523	0.65329	0.38104	0.21466	10.31316	10.98466	10.07091	0.16248	0.15745	0.11798	9.38143	9.77415	10.06019
7670	0.06881	0.07793	0.05751	10.31598	10.53665	10.50890	0.65719	0.38425	0.21643	10.37565	11.01590	10.05420	0.16416	0.15943	0.12114	9.36906	9.71699	10.00488
7840	0.06880	0.07700	0.05500	10.22445	10.42610	10.41557	0.65685	0.38037	0.21184	10.28494	10.95283	10.02569	0.16494	0.15567	0.11946	9.36048	9.74624	10.04429
8000	0.06715	0.07634	0.05416	10.31778	10.52561	10.50822	0.65405	0.38013	0.21085	10.35335	11.02633	10.07936	0.16637	0.15649	0.12250	9.38171	9.72979	10.01341
8160	0.06963	0.07654	0.05406	10.26366	10.23143	10.43127	0.65385	0.38089	0.21269	10.16357	11.04178	9.92561	0.16389	0.15770	0.11859	9.43410	9.64726	10.10241	32.64	6.2	0.00	7.71	0.01264	0.01289	0.01618	0.00785	0.00583	0.00640	0.00467	0.01264	0.01677	0.00679	0.00697	0.00876	0.01486	0.01091	0.01193	0.00220	0.00624	0.00872
8330	0.06613	0.08007	0.05409	10.23933	10.57760	10.41507	0.65034	0.37758	0.20996	10.39178	11.01932	10.19847	0.16779	0.15778	0.12154	9.41446	9.77033	9.98314
8490	0.07061	0.07945	0.05685	10.22255	10.44114	10.43742	0.65849	0.38205	0.21254	10.30662	10.97387	10.00306	0.16626	0.15540	0.11968	9.34983	9.72019	10.03380
8660	0.06916	0.07808	0.05566	10.30161	10.49345	10.47445	0.64882	0.38051	0.20914	10.33490	11.02208	10.08898	0.16685	0.16121	0.12491	9.40148	9.74006	10.05089
8820	0.06991	0.08056	0.05972	10.27615	10.47924	10.45093	0.65849	0.38275	0.21478	10.31133	10.96535	10.01150	0.16536	0.15804	0.11990	9.32706	9.70307	9.99520
8980	0.07169	0.07994	0.05970	10.26437	10.48034	10.47346	0.64676	0.38499	0.21576	10.34307	11.01773	10.07845	0.16698	0.16137	0.12398	9.39694	9.76167	10.05845
9150	0.06999	0.07994	0.05682	10.30341	10.51311	10.48213	0.65213	0.38088	0.21235	10.33707	10.98239	10.03133	0.16545	0.15657	0.12017	9.31091	9.69887	10.00663
9310	0.06950	0.08184	0.05828	10.24596	10.44816	10.44446	0.65790	0.38565	0.21563	10.31521	10.98143	10.05391	0.16743	0.15793	0.12151	9.39362	9.77524	10.05823
9470	0.06786	0.07882	0.05621	10.30034	10.50775	10.48654	0.65787	0.38035	0.21103	10.33085	10.97421	10.02140	0.16258	0.15566	0.11965	9.32011	9.70012	10.01131
9640	0.07010	0.08038	0.05724	10.27874	10.47591	10.46139	0.65640	0.38335	0.21594	10.31508	11.00532	10.05889	0.16699	0.15897	0.12047	9.38502	9.72362	10.04319
9800	0.06870	0.07666	0.05697	10.28189	10.49483	10.46872	0.64983	0.38529	0.21425	10.31704	10.97117	10.03416	0.16347	0.15679	0.11774	9.34061	9.68911	10.00905	32.64	6.2	0.00	7.81	0.01264	0.01289	0.01618	0.00785	0.00583	0.00640	0.00467	0.01264	0.01677	0.00679	0.00697	0.00876	0.01486	0.01091	0.01193	0.00220	0.00624	0.00872
9960	0.06603	0.07704	0.05486	10.23882	10.48002	10.44429	0.65284	0.37764	0.21076	10.32701	11.00478	10.08061	0.16670	0.15963	0.12042	9.38522	9.75741	10.04333
10130	0.07174	0.07806	0.05554	10.29203	10.47642	10.45386	0.65311	0.38257	0.21404	10.29894	10.96691	10.02769	0.16563	0.15919	0.12106	9.34193	9.71119	10.00511
10290	0.07204	0.07831	0.05664	10.25816	10.46651	10.45338	0.65753	0.38634	0.21524	10.32105	10.98406	10.05197	0.16695	0.15941	0.12151	9.37256	9.73699	10.02851
10450	0.06925	0.07743	0.05493	10.27963	10.49104	10.46725	0.64934	0.38056	0.21207	10.32730	10.97007	10.03119	0.16737	0.15828	0.12283	9.33967	9.71686	10.01179
10620	0.06890	0.07905	0.05713	10.26444	10.46734	10.45600	0.65194	0.38107	0.21485	10.33173	10.99008	10.04600	0.16743	0.15565	0.12276	9.37162	9.73587	10.03576
10780	0.06876	0.07791	0.05507	10.29045	10.49252	10.47448	0.64929	0.38047	0.21120	10.31494	10.97464	10.04334	0.16750	0.15624	0.12146	9.37209	9.73577	10.02399
10940	0.07185	0.08000	0.05680	10.26399	10.46885	10.45788	0.65397	0.38140	0.21386	10.29214	10.96437	10.01868	0.16845	0.15794	0.12123	9.35106	9.73291	10.03744
11110	0.06853	0.07871	0.05708	10.29424	10.50151	10.48459	0.65704	0.38006	0.21131	10.34899	11.02230	10.07501	0.16869	0.16109	0.12110	9.37955	9.73183	10.03189
11270	0.07062	0.07996	0.05841	10.26647	10.47018	10.46272	0.65118	0.38206	0.21460	10.31125	10.97588	10.02744	0.16799	0.15794	0.11923	9.34824	9.72252	10.02136
11440	0.06980	0.07618	0.05381	10.28155	10.46966	10.46656	0.64619	0.38158	0.20993	10.32010	11.01501	10.07071	0.16682	0.16188	0.12575	9.39149	9.73755	10.04232	32.64	6.1	0.00	7.72	0.01264	0.01289	0.01618	0.00785	0.00583	0.00640	0.00467	0.01264	0.01677	0.00679	0.00697	0.00876	0.01486	0.01091	0.01193	0.00220	0.00624	0.00872
11600	0.07027	0.08233	0.05651	10.27226	10.47851	10.44497	0.65305	0.38292	0.21587	10.29659	10.96456	10.02554	0.16872	0.16038	0.12442	9.33800	9.71344	10.01399
11760	0.06769	0.07944	0.05495	10.28630	10.47745	10.47482	0.64822	0.38007	0.21084	10.35433	11.02951	10.07373	0.16917	0.16210	0.12562	9.39319	9.75119	10.06080
11930	0.07210	0.07926	0.05690	10.26763	10.48222	10.44796	0.65872	0.38376	0.21632	10.29348	10.95283	10.00502	0.16552	0.15831	0.12072	9.33029	9.69667	10.00045
12090	0.06671	0.07932	0.05478	10.26801	10.47409	10.47062	0.65276	0.38153	0.21052	10.32555	11.01559	10.07969	0.16677	0.16126	0.12451	9.39603	9.75725	10.05568
12250	0.07030	0.08100	0.05674	10.29539	10.49723	10.46220	0.65315	0.38532	0.21528	10.31383	10.95448	10.02848	0.16746	0.15861	0.12156	9.33142	9.69873	9.99965
12410	0.07199	0.07958	0.05707	10.25355	10.47303	10.47677	0.65232	0.38561	0.21687	10.32548	11.02284	10.06302	0.16590	0.16058	0.12123	9.40038	9.73959	10.03745
12580	0.06891	0.07749	0.05471	10.27275	10.47477	10.44874	0.65656	0.38337	0.21237	10.31446	10.97686	10.05060	0.16530	0.15663	0.12261	9.34600	9.73112	10.02512
12740	0.06799	0.07811	0.05493	10.28247	10.48408	10.45450	0.65158	0.38111	0.20929	10.32010	10.99591	10.06801	0.16765	0.15963	0.12424	9.39045	9.73568	10.02940
12910	0.07069	0.07913	0.05698	10.27730	10.47859	10.45440	0.65467	0.38256	0.21393	10.31230	10.98167	10.03332	0.16591	0.15711	0.12223	9.34986	9.71758	10.01771
13070	0.06927	0.07916	0.05405	10.27869	10.48730	10.46795	0.65004	0.37909	0.21000	10.33216	11.01358	10.07316	0.16891	0.15944	0.12486	9.37888	9.72873	10.02555	32.64	6.1	0.00	7.76	0.01264	0.01289	0.01618	0.00785	0.00583	0.00640	0.00467	0.01264	0.01677	0.00679	0.00697	0.00876	0.01486	0.01091	0.01193	0.00220	0.00624	0.00872
13230	0.07076	0.08087	0.05703	10.27364	10.47492	10.46140	0.65494	0.38506	0.21697	10.31750	11.00199	10.03630	0.16653	0.15872	0.12031	9.35529	9.71308	10.02181
13400	0.07010	0.07928	0.05939	10.27389	10.46890	10.46641	0.65470	0.38686	0.21782	10.32706	11.01154	10.04827	0.17057	0.15941	0.12469	9.39288	9.74039	10.02918
13560	0.06991	0.07875	0.05750	10.28082	10.46580	10.46181	0.65328	0.38308	0.21504	10.31626	10.99476	10.04380	0.16487	0.15911	0.12086	9.33317	9.72323	10.00471
13720	0.07008	0.08030	0.05595	10.27406	10.46777	10.45673	0.66204	0.38524	0.21768	10.31480	10.99755	10.04152	0.16775	0.16083	0.12245	9.37813	9.72292	10.03937
13890	0.06852	0.07717	0.05483	10.28040	10.49704	10.47911	0.65278	0.38158	0.21364	10.33516	11.00086	10.04817	0.16456	0.15663	0.11989	9.36425	9.71410	10.01760
14050	0.06950	0.07919	0.05662	10.26479	10.47598	10.42251	0.65610	0.38330	0.21334	10.30477	10.97014	10.05040	0.16387	0.15822	0.12177	9.36293	9.73784	10.04081
14210	0.06816	0.07820	0.05551	10.28893	10.48855	10.47583	0.65497	0.37871	0.21351	10.32231	11.00110	10.05200	0.16524	0.15664	0.11975	9.35341	9.71776	9.99870
14370	0.06731	0.07679	0.05657	10.25372	10.46323	10.44682	0.65836	0.38593	0.21694	10.32062	10.98179	10.05216	0.16670	0.15758	0.12170	9.35906	9.73573	10.02847
14540	0.07025	0.07994	0.05617	10.28697	10.47549	10.47586	0.65691	0.38456	0.21478	10.32782	11.00051	10.04147	0.16398	0.15386	0.12067	9.35058	9.71970	10.03134
14700	0.06882	0.07748	0.05596	10.25617	10.46690	10.43877	0.65486	0.38535	0.21609	10.30895	10.97435	10.05557	0.16838	0.15924	0.12050	9.36749	9.74830	10.03811	32.64	6.1	0.00	7.69	0.01264	0.01289	0.01618	0.00785	0.00583	0.00640	0.00467	0.01264	0.01677	0.00679	0.00697	0.00876	0.01486	0.01091	0.01193	0.00220	0.00624	0.00872
14870	0.06894	0.07779	0.05758	10.27864	10.48837	10.47605	0.65270	0.38145	0.21383	10.32554	11.00390	10.03245	0.16590	0.15411	0.11829	9.36325	9.72023	10.02692
15030	0.06851	0.07875	0.05743	10.26526	10.46985	10.45548	0.65768	0.38803	0.21646	10.31060	10.98758	10.03942	0.16910	0.16060	0.12244	9.35853	9.72468	10.02699
15190	0.06940	0.07880	0.05650	10.27199	10.48197	10.47461	0.64894	0.38218	0.21256	10.34289	10.99887	10.05902	0.16485	0.15234	0.11758	9.35269	9.72688	10.01821
15360	0.07128	0.08164	0.06065	10.26047	10.48113	10.45470	0.65103	0.38983	0.21962	10.31904	10.98023	10.05163	0.16823	0.16157	0.12407	9.36391	9.72556	10.01593
15520	0.07026	0.07796	0.05789	10.27367	10.48004	10.47734	0.64826	0.38224	0.21376	10.32480	11.01421	10.05120	0.16613	0.15995	0.11990	9.37750	9.71989	10.02166
15680	0.06984	0.07996	0.05722	10.26584	10.47977	10.45061	0.64978	0.38604	0.21767	10.32229	10.98163	10.03995	0.16816	0.15963	0.12105	9.34873	9.73184	10.02555
15840	0.06898	0.07713	0.05446	10.28131	10.46762	10.45957	0.65544	0.38335	0.21355	10.32108	10.99939	10.06502	0.16554	0.15731	0.11823	9.36240	9.73579	10.02616
16010	0.06694	0.07525	0.05424	10.27108	10.47648	10.45092	0.65402	0.37979	0.21016	10.33086	10.98421	10.03394	0.16642	0.15963	0.12362	9.34788	9.72454	10.02108
16170	0.07097	0.08052	0.05708	10.26868	10.46963	10.46584	0.65643	0.38619	0.21436	10.31273	10.99698	10.05130	0.16711	0.15742	0.11928	9.35476	9.72349	10.04049
16340	0.06989	0.07663	0.05428	10.28013	10.49506	10.45791	0.65138	0.37868	0.21114	10.31357	10.97586	10.05026	0.16689	0.15943	0.12304	9.35477	9.73718	10.03047	32.64	6.1	0.00	7.67	0.01264	0.01289	0.01618	0.00785	0.00583	0.00640	0.00467	0.01264	0.01677	0.00679	0.00697	0.00876	0.01486	0.01091	0.01193	0.00220	0.00624	0.00872
16500	0.06908	0.07864	0.05603	10.27029	10.46790	10.45206	0.65619	0.38165	0.21388	10.30654	11.00012	10.04569	0.16823	0.15942	0.12171	9.37345	9.72682	10.02327
16660	0.06923	0.07789	0.05485	10.27004	10.47926	10.45543	0.64567	0.37849	0.21129	10.32341	10.97895	10.05415	0.16782	0.16091	0.12395	9.35619	9.73830	10.01902
16830	0.07231	0.07997	0.05798	10.28049	10.47475	10.45839	0.65109	0.38418	0.21279	10.30870	10.98621	10.05125	0.16799	0.15754	0.12110	9.37572	9.71606	10.02498
16990	0.06943	0.08181	0.05874	10.26684	10.48721	10.45989	0.65658	0.38568	0.21591	10.33211	11.00725	10.05781	0.16870	0.16020	0.12135	9.36949	9.71982	10.02456
17150	0.06906	0.07880	0.05759	10.26957	10.46783	10.45693	0.64993	0.38330	0.21533	10.31503	10.99478	10.04282	0.16602	0.15846	0.11979	9.37439	9.71945	10.04403
17320	0.07173	0.08186	0.05954	10.26229	10.49559	10.44280	0.65391	0.38900	0.21757	10.32077	10.98284	10.05707	0.16928	0.16068	0.12430	9.35345	9.73908	10.02079
17480	0.07010	0.08035	0.05523	10.27677	10.47222	10.46183	0.65234	0.38059	0.21408	10.31449	10.99509	10.04029	0.16442	0.15889	0.11983	9.36882	9.71619	10.02575
17640	0.06870	0.08014	0.05645	10.26050	10.47558	10.48501	0.65533	0.38597	0.21759	10.32695	10.99905	10.03719	0.16805	0.16011	0.12222	9.36986	9.72831	10.02906
17810	0.06924	0.07846	0.05510	10.26576	10.48547	10.46071	0.65339	0.38138	0.21289	10.31933	10.98848	10.04694	0.16709	0.15867	0.12089	9.36420	9.71595	10.02811
17970	0.07132	0.08098	0.05695	10.26574	10.49301	10.45443	0.65525	0.38289	0.21594	10.32910	10.98625	10.05882	0.16583	0.15797	0.11873	9.35964	9.73253	10.01509	32.64	6.2	0.00	7.82	0.01264	0.01289	0.01618	0.00785	0.00583	0.00640	0.00467	0.01264	0.01677	0.00679	0.00697	0.00876	0.01486	0.01091	0.01193	0.00220	0.00624	0.00872
18130	0.06614	0.07616	0.05525	10.27384	10.47831	10.45481	0.65108	0.38367	0.21269	10.32040	10.99141	10.05033	0.16260	0.15718	0.11940	9.35766	9.71623	10.01281
18290	0.06772	0.07834	0.05569	10.27588	10.47839	10.46074	0.65835	0.38652	0.21399	10.32018	10.99729	10.02276	0.16570	0.16071	0.12149	9.35493	9.72947	10.04665
18460	0.06650	0.07725	0.05617	10.29679	10.47123	10.45198	0.65547	0.38170	0.21191	10.31441	11.00708	10.05419	0.16570	0.15698	0.11841	9.35568	9.71274	10.00931
18620	0.06815	0.07923	0.05579	10.25260	10.44758	10.46438	0.64578	0.38316	0.21326	10.32301	11.01166	10.03394	0.16832	0.15777	0.12355	9.36709	9.73158	10.02462
18780	0.07063	0.08068	0.05964	10.27533	10.49388	10.47035	0.65790	0.38671	0.21653	10.33248	10.98920	10.05472	0.16783	0.16000	0.12378	9.34748	9.72757	10.00528
18950	0.06752	0.07768	0.05436	10.27362	10.45014	10.45453	0.65273	0.38256	0.21313	10.29841	10.98728	10.03432	0.16773	0.16059	0.12450	9.36671	9.74341	10.04255
19110	0.07065	0.07900	0.05783	10.28629	10.48301	10.46616	0.65358	0.38692	0.21629	10.32123	10.99495	10.04964	0.16772	0.16126	0.12060	9.35851	9.71911	10.00099
19270	0.06723	0.07847	0.05475	10.25896	10.46401	10.46132	0.65042	0.38099	0.21181	10.30798	10.98398	10.05041	0.16700	0.15989	0.12042	9.35889	9.73810	10.01516
19440	0.06848	0.08001	0.05447	10.28949	10.47827	10.47168	0.65133	0.38394	0.21404	10.33417	10.99598	10.05437	0.16649	0.15775	0.11985	9.34456	9.74133	10.02267
19600	0.06790	0.07811	0.05572	10.28329	10.45412	10.44404	0.65847	0.38293	0.21483	10.28899	10.97856	10.01953	0.16402	0.15741	0.11629	9.35909	9.71793	10.03744	32.69	6.0	0.00	7.68	0.01264	0.01289	0.01618	0.00785	0.00583	0.00640	0.00467	0.01264	0.01677	0.00679	0.00697	0.00876	0.01486	0.01091	0.01193	0.00220	0.00624	0.00872
19760	0.07082	0.08297	0.05865	10.28338	10.49565	10.46366	0.66169	0.38570	0.21783	10.33539	11.00868	10.06119	0.16893	0.16332	0.12472	9.38307	9.72859	10.02219
19930	0.07032	0.08004	0.05559	10.26415	10.47613	10.44000	0.65712	0.38318	0.21513	10.31544	10.98135	10.02153	0.16384	0.15863	0.12186	9.35137	9.71365	10.02594
20090	0.06969	0.08112	0.05945	10.25443	10.49038	10.46448	0.66461	0.38680	0.21920	10.34087	10.98723	10.06371	0.16811	0.16122	0.12299	9.36626	9.73110	10.00708
20250	0.07111	0.07895	0.05641	10.27380	10.47125	10.47533	0.65398	0.38119	0.21249	10.31878	11.00420	10.06444	0.16377	0.15806	0.11977	9.37079	9.72458	10.01257
20410	0.06795	0.07742	0.05286	10.26374	10.47242	10.44387	0.64810	0.37657	0.20920	10.31786	10.98365	10.02404	0.16655	0.16168	0.12363	9.35994	9.73185	10.03976
20580	0.07241	0.08130	0.05673	10.28009	10.47795	10.46547	0.65811	0.38389	0.21548	10.31471	10.99387	10.05893	0.16580	0.15695	0.12021	9.35966	9.72723	10.02127
20740	0.06874	0.07693	0.05549	10.27783	10.46883	10.44602	0.64954	0.37716	0.20984	10.31576	10.99483	10.04704	0.16584	0.16059	0.12302	9.36164	9.72278	10.03255
20910	0.07069	0.08085	0.05592	10.28117	10.48033	10.46557	0.65509	0.38409	0.21563	10.32353	10.99411	10.04501	0.16681	0.15836	0.12131	9.36824	9.72309	10.03287
21070	0.06953	0.08076	0.05586	10.26106	10.47556	10.45518	0.64559	0.38039	0.21271	10.33159	10.99263	10.03461	0.16843	0.16018	0.12516	9.35608	9.72438	10.01587
21230	0.07225	0.08105	0.05841	10.27258	10.47665	10.46050	0.65941	0.38435	0.21496	10.32707	11.00059	10.05399	0.16724	0.15748	0.12234	9.37834	9.73122	10.03435	32.64	6.0	0.00	7.69	0.01264	0.01289	0.01618	0.00785	0.00583	0.00640	0.00467	0.01264	0.01677	0.00679	0.00697	0.00876	0.01486	0.01091	0.01193	0.00220	0.00624	0.00872
21400	0.06955	0.08259	0.05662	10.26547	10.48294	10.46868	0.66071	0.38633	0.21750	10.32069	10.98977	10.03492	0.16905	0.15815	0.12120	9.35937	9.73047	10.02732
21560	0.07158	0.07915	0.05638	10.27793	10.46311	10.44817	0.64675	0.38520	0.21496	10.30281	10.98313	10.04774	0.16565	0.15798	0.11974	9.37739	9.73291	10.03496
21720	0.06860	0.08220	0.05821	10.27650	10.49503	10.46647	0.65769	0.38647	0.21692	10.31719	10.99490	10.05610	0.16914	0.16200	0.12462	9.36286	9.72140	10.02061
21890	0.07079	0.07823	0.05488	10.26368	10.46764	10.44313	0.64462	0.38207	0.21293	10.29569	10.97684	10.02947	0.16955	0.16182	0.12355	9.35579	9.71930	10.03063
22050	0.07290	0.08247	0.05693	10.27390	10.48688	10.46456	0.66083	0.38380	0.21597	10.33335	10.99594	10.05815	0.16922	0.16215	0.12238	9.36361	9.74084	10.03036
22210	0.06917	0.08030	0.05553	10.28072	10.47124	10.44337	0.65171	0.38166	0.21194	10.29960	10.98224	10.05223	0.16543	0.15612	0.12005	9.36588	9.71967	10.01371
22370	0.06690	0.08055	0.05803	10.26048	10.47892	10.46197	0.65404	0.38744	0.21667	10.34250	10.99277	10.06179	0.16809	0.16153	0.12420	9.37843	9.74771	10.05331
22540	0.07007	0.08032	0.05539	10.25770	10.46746	10.43381	0.64967	0.38253	0.21243	10.29620	10.94925	10.01881	0.16435	0.15843	0.11877	9.33695	9.71044	10.00383
22700	0.06765	0.07550	0.05707	10.27465	10.48351	10.47503	0.64881	0.38027	0.21038	10.33708	11.01182	10.08567	0.16551	0.15933	0.12210	9.38712	9.76065	10.04607
22860	0.06998	0.08004	0.05708	10.28110	10.48513	10.45672	0.65951	0.38263	0.21436	10.31192	10.97495	10.01787	0.16579	0.15690	0.11986	9.33829	9.69501	10.00254	32.64	6.2	0.00	7.69	0.01264	0.01289	0.01618	0.00785	0.00583	0.00640	0.00467	0.01264	0.01677	0.00679	0.00697	0.00876	0.01486	0.01091	0.01193	0.00220	0.00624	0.00872
23030	0.06909	0.08031	0.05395	10.25400	10.45955	10.44861	0.65085	0.38194	0.21305	10.31794	10.99215	10.05243	0.16542	0.15623	0.11916	9.36560	9.73161	10.04589
23190	0.06520	0.08074	0.05869	10.29582	10.51419	10.47332	0.66096	0.38793	0.21972	10.35245	11.02231	10.08363	0.16809	0.16157	0.12681	9.36023	9.73195	10.01380
23350	0.07114	0.08179	0.05795	10.24833	10.43064	10.42392	0.65656	0.38348	0.21416	10.27050	10.95100	9.99288	0.16508	0.15864	0.12144	9.36409	9.70036	10.01494
23520	0.07146	0.08249	0.05842	10.28604	10.50493	10.49645	0.65600	0.38879	0.21763	10.35412	11.02898	10.08952	0.16825	0.16335	0.12297	9.38448	9.75559	10.03220
23680	0.07000	0.08124	0.05793	10.25965	10.46189	10.42844	0.64982	0.38368	0.21371	10.29916	10.94103	10.02187	0.16860	0.15980	0.11986	9.32362	9.70653	9.99235
23840	0.06852	0.08200	0.05813	10.25912	10.47827	10.48681	0.65303	0.38513	0.21540	10.35846	11.04063	10.09487	0.16622	0.16019	0.12055	9.40965	9.77165	10.03963
24000	0.06805	0.07976	0.05588	10.28361	10.45690	10.44834	0.64773	0.37967	0.21263	10.28157	10.95827	10.00011	0.16776	0.15980	0.12013	9.31339	9.67384	9.99107
24170	0.06773	0.07689	0.05338	10.24993	10.46745	10.44344	0.65274	0.37884	0.21127	10.34418	11.01783	10.07932	0.16864	0.15959	0.12485	9.39063	9.76268	10.06857
24330	0.06831	0.08074	0.05820	10.31358	10.52267	10.49892	0.65720	0.38168	0.21335	10.32424	11.00103	10.05231	0.16619	0.15829	0.12286	9.35533	9.69346	9.97819
24500	0.06923	0.07839	0.05440	10.23693	10.41895	10.41325	0.64951	0.38163	0.21093	10.27960	10.98002	10.02221	0.16861	0.16103	0.12512	9.35671	9.72705	10.04158	32.69	6.1	0.00	7.67	0.01264	0.01289	0.01618	0.00785	0.00583	0.00640	0.00467	0.01264	0.01677	0.00679	0.00697	0.00876	0.01486	0.01091	0.01193	0.00220	0.00624	0.00872
24660	0.06980	0.07959	0.05743	10.30299	10.50419	10.47901	0.64939	0.38328	0.21410	10.35264	11.01307	10.07083	0.16832	0.15982	0.12122	9.37077	9.73425	10.02522
24820	0.07093	0.07692	0.05583	10.24520	10.45481	10.44108	0.64963	0.38108	0.20969	10.31357	10.96765	10.02474	0.17040	0.16100	0.12407	9.34795	9.73044	10.03406
24990	0.07219	0.08135	0.05825	10.27393	10.48129	10.45752	0.65967	0.38661	0.21442	10.31141	11.00180	10.05397	0.16996	0.16031	0.12347	9.38862	9.73870	10.03566
25150	0.07117	0.08003	0.05857	10.27777	10.48496	10.45193	0.65743	0.38712	0.21669	10.31437	10.96226	10.03452	0.16812	0.16112	0.12273	9.33346	9.71598	10.00829
25310	0.06944	0.08073	0.05596	10.26395	10.47606	10.46918	0.64841	0.38388	0.21400	10.32950	10.99508	10.05188	0.16583	0.15884	0.12124	9.37294	9.72772	10.02182
25480	0.07005	0.08148	0.05864	10.27288	10.47629	10.46526	0.65439	0.38707	0.21661	10.31758	10.98978	10.05310	0.16954	0.16078	0.12485	9.35050	9.71981	10.02377
25640	0.07027	0.07996	0.05655	10.27090	10.47864	10.45462	0.65164	0.38376	0.21461	10.31985	10.98961	10.04345	0.16773	0.15633	0.12055	9.36671	9.73262	10.02746
25800	0.06815	0.07834	0.05376	10.26764	10.47122	10.45108	0.65343	0.38172	0.20952	10.32542	10.99020	10.04198	0.17026	0.16084	0.12450	9.36011	9.72280	10.01917
25970	0.07176	0.08002	0.05873	10.26839	10.47232	10.45636	0.65623	0.38582	0.21585	10.31160	10.98817	10.03952	0.16750	0.16150	0.12340	9.36492	9.72929	10.02364
26130	0.07165	0.08216	0.05898	10.28197	10.48811	10.46565	0.65527	0.38660	0.21624	10.33628	11.00419	10.04505	0.16771	0.16154	0.12147	9.35808	9.73249	10.02052	32.64	6.1	0.00	7.77	0.01264	0.01289	0.01618	0.00785	0.00583	0.00640	0.00467	0.01264	0.01677	0.00679	0.00697	0.00876	0.01486	0.01091	0.01193	0.00220	0.00624	0.00872
26290	0.06897	0.07880	0.05626	10.25520	10.46622	10.44450	0.65677	0.38202	0.21313	10.32133	10.97879	10.05237	0.16412	0.15427	0.11824	9.36780	9.73266	10.01965
26460	0.06705	0.08022	0.05921	10.27096	10.47686	10.47514	0.65876	0.38780	0.21999	10.32222	11.00598	10.05217	0.17076	0.16302	0.12525	9.36082	9.71925	10.01975
26620	0.07187	0.08314	0.05788	10.26255	10.47470	10.45734	0.65159	0.38198	0.21589	10.31423	10.99595	10.05318	0.16620	0.15912	0.12151	9.37686	9.75512	10.02945
26780	0.06837	0.08083	0.05903	10.29592	10.49023	10.47667	0.66421	0.38576	0.21700	10.32828	10.98377	10.03131	0.16882	0.16373	0.12414	9.34669	9.70562	10.00722
26940	0.07054	0.07835	0.05896	10.26217	10.46687	10.44535	0.64792	0.38256	0.21415	10.31697	10.99612	10.07757	0.16528	0.15897	0.12049	9.37667	9.73392	10.02942
27110	0.06642	0.07784	0.05518	10.29459	10.48356	10.46558	0.65314	0.37960	0.21118	10.31095	10.98783	10.03298	0.16883	0.16285	0.12694	9.37091	9.70267	10.02604
27270	0.07245	0.08315	0.05944	10.24783	10.47216	10.44889	0.65998	0.38916	0.21657	10.32522	10.97958	10.03034	0.16807	0.16184	0.12338	9.35676	9.73069	10.03249
27430	0.06866	0.07947	0.05850	10.28644	10.47799	10.45921	0.66197	0.38569	0.21300	10.31888	10.99471	10.04691	0.16784	0.16312	0.12411	9.37166	9.72285	10.02682
27600	0.07090	0.08128	0.05701	10.26129	10.47557	10.44691	0.66251	0.38334	0.21450	10.30952	10.97621	10.06065	0.16775	0.16017	0.12418	9.36431	9.73083	10.02840
27760	0.06863	0.07776	0.05575	10.28186	10.47696	10.47058	0.65084	0.37990	0.21205	10.30738	10.99324	10.01557	0.16660	0.16146	0.12519	9.35583	9.72315	10.02961	32.64	6.1	0.00	7.69	0.01264	0.01289	0.01618	0.00785	0.00583	0.00640	0.00467	0.01264	0.01677	0.00679	0.00697	0.00876	0.01486	0.01091	0.01193	0.00220	0.00624	0.00872
27920	0.07169	0.08141	0.05939	10.27091	10.46762	10.45098	0.65918	0.38546	0.21648	10.31237	10.97727	10.05112	0.16935	0.16052	0.12351	9.34962	9.72362	10.01175
28090	0.06679	0.08020	0.05469	10.27366	10.46852	10.44509	0.65526	0.38276	0.21236	10.31664	10.98797	10.04823	0.16870	0.16213	0.12582	9.37630	9.72240	10.03278
28250	0.06992	0.08269	0.05965	10.26790	10.47356	10.46949	0.65641	0.38333	0.21516	10.30735	10.98212	10.03140	0.16601	0.16028	0.12380	9.33926	9.70439	9.99411
28420	0.06991	0.08101	0.05750	10.27058	10.47147	10.46083	0.65761	0.38872	0.21501	10.32639	11.00919	10.06566	0.16717	0.15957	0.12487	9.37413	9.72821	10.03638
28580	0.06805	0.08141	0.05645	10.26459	10.47848	10.43883	0.65786	0.38589	0.21625	10.31791	10.96443	10.02905	0.16786	0.15871	0.12319	9.32723	9.70714	10.00816
28740	0.07069	0.08300	0.05964	10.25947	10.46576	10.46328	0.65904	0.38656	0.21871	10.33685	11.01909	10.06698	0.17030	0.16355	0.12294	9.38991	9.74422	10.04792
28910	0.07031	0.07912	0.05778	10.28338	10.48476	10.45323	0.65914	0.38321	0.21368	10.31101	10.95990	10.01932	0.16811	0.15917	0.12089	9.32864	9.69569	10.00223
29070	0.07151	0.08259	0.06041	10.26195	10.47954	10.46918	0.65963	0.39123	0.22081	10.32470	11.00888	10.05953	0.17027	0.16218	0.12644	9.39842	9.75961	10.04561
29230	0.07067	0.08035	0.05814	10.27841	10.48855	10.47386	0.65651	0.38656	0.21527	10.31944	10.96206	10.00280	0.16511	0.16013	0.12105	9.32131	9.69345	10.00609
29400	0.07065	0.08354	0.06021	10.26615	10.46621	10.45402	0.66381	0.38949	0.22054	10.30504	10.99357	10.05596	0.16964	0.16200	0.12477	9.37622	9.74419	10.04529	32.69	6.2	0.00	7.68	0.01264	0.01289	0.01618	0.00785	0.00583	0.00640	0.00467	0.01264	0.01677	0.00679	0.00697	0.00876	0.01486	0.01091	0.01193	0.00220	0.00624	0.00872
29560	0.06981	0.07955	0.05858	10.28941	10.50354	10.46386	0.65392	0.38404	0.21675	10.33897	10.99329	10.04578	0.16575	0.15941	0.12119	9.35792	9.70948	10.01038
29720	0.06677	0.07897	0.05665	10.25296	10.44332	10.43720	0.65255	0.38245	0.21195	10.30380	10.99736	10.05594	0.16707	0.15675	0.12289	9.37264	9.73409	10.02550
29880	0.07080	0.08126	0.05841	10.27472	10.46258	10.45030	0.65365	0.38637	0.21469	10.31214	10.99216	10.02899	0.16481	0.15915	0.11945	9.36461	9.74089	10.05806
30050	0.06895	0.07957	0.05656	10.29552	10.48867	10.45493	0.65086	0.38203	0.21373	10.30858	10.98332	10.03195	0.16774	0.16222	0.12519	9.34699	9.69976	10.00502
30210	0.07352	0.08408	0.06039	10.25180	10.46920	10.46339	0.66600	0.38955	0.22061	10.33515	10.99529	10.07703	0.17144	0.16219	0.12306	9.39381	9.75151	10.02871
30370	0.07070	0.08240	0.05946	10.27478	10.46863	10.43292	0.65996	0.38663	0.21625	10.30333	10.98142	10.04618	0.16858	0.16086	0.12500	9.35801	9.73542	10.01580
30540	0.07193	0.08272	0.05885	10.26563	10.45725	10.44366	0.65508	0.38569	0.21899	10.29602	10.96404	10.02285	0.16906	0.15976	0.12119	9.35603	9.72526	10.04967
30700	0.06795	0.07897	0.05578	10.29836	10.52337	10.48284	0.65508	0.38377	0.21338	10.33792	11.01825	10.07303	0.16442	0.15960	0.11962	9.35886	9.70342	9.97959
30860	0.06674	0.07779	0.05516	10.22687	10.42760	10.41780	0.65118	0.38005	0.21167	10.30823	10.98136	10.04426	0.16909	0.16177	0.12440	9.37207	9.73386	10.05309
31020	0.07147	0.08215	0.05753	10.29216	10.50962	10.48115	0.66056	0.38644	0.21736	10.34296	11.00277	10.06373	0.16826	0.16117	0.12240	9.36553	9.72918	10.01528	32.69	6.2	0.00	7.66	0.01264	0.01289	0.01618	0.00785	0.00583	0.00640	0.00467	0.01264	0.01677	0.00679	0.00697	0.00876	0.01486	0.01091	0.01193	0.00220	0.00624	0.00872
31190	0.06684	0.07739	0.05743	10.25693	10.45526	10.42739	0.65345	0.38465	0.21285	10.29385	10.95883	10.02167	0.16901	0.16149	0.12542	9.34546	9.71570	10.02592
31350	0.06915	0.08195	0.05560	10.27046	10.48140	10.47657	0.65379	0.38683	0.21646	10.34149	11.01011	10.06726	0.16845	0.15891	0.12323	9.36553	9.74621	10.02113
31510	0.06842	0.08024	0.05666	10.28216	10.47364	10.47677	0.65605	0.38257	0.21400	10.32031	10.98638	10.03447	0.16616	0.15991	0.12439	9.35111	9.70542	9.99475
31680	0.06926	0.07992	0.05847	10.25110	10.45020	10.41859	0.66243	0.38655	0.21558	10.29620	10.96809	10.04634	0.16758	0.15976	0.12204	9.34885	9.73907	10.03833
31840	0.06836	0.07994	0.05700	10.31664	10.51262	10.49424	0.66327	0.38263	0.21355	10.34219	11.02716	10.05897	0.17126	0.16234	0.12596	9.37620	9.70658	10.00253
32010	0.06981	0.08159	0.05970	10.23081	10.43387	10.43194	0.65848	0.38642	0.21740	10.28915	10.96991	10.02656	0.17046	0.16004	0.12427	9.36742	9.73268	10.05834
32170	0.07081	0.08150	0.05999	10.30886	10.52175	10.50782	0.66486	0.38952	0.21790	10.33638	11.03151	10.04495	0.16997	0.15960	0.12295	9.36053	9.71122	10.01732
32330	0.07171	0.08216	0.05859	10.26525	10.45402	10.42257	0.65391	0.38757	0.21794	10.31732	10.96775	10.05971	0.16998	0.15822	0.12353	9.35309	9.73601	10.03928
32500	0.07020	0.08114	0.06012	10.28987	10.48754	10.46684	0.66059	0.38955	0.22014	10.30319	10.99633	10.03870	0.17142	0.16247	0.12658	9.37563	9.71570	10.01229
32660	0.07119	0.08128	0.05803	10.24905	10.47122	10.44351	0.66406	0.38748	0.21554	10.32886	10.99163	10.06119	0.16721	0.15961	0.12214	9.38523	9.74742	10.04466	32.69	6.0	0.00	7.65	0.01264	0.01289	0.01618	0.00785	0.00583	0.00640	0.00467	0.01264	0.01677	0.00679	0.00697	0.00876	0.01486	0.01091	0.01193	0.00220	0.00624	0.00872
32820	0.06997	0.08581	0.06270	10.27359	10.47395	10.44334	0.66480	0.38998	0.21920	10.29296	10.96646	10.02852	0.17026	0.16292	0.12609	9.34693	9.72114	10.00779
32990	0.07186	0.08179	0.05930	10.25428	10.46990	10.46985	0.66121	0.38415	0.21623	10.33534	10.97962	10.03760	0.16563	0.15847	0.12065	9.34307	9.73215	10.02484
33150	0.07021	0.08396	0.06086	10.29823	10.48815	10.47398	0.65981	0.38913	0.21944	10.31682	11.00051	10.04437	0.17090	0.16329	0.12462	9.36399	9.69466	10.00551
33310	0.07009	0.08266	0.05908	10.25967	10.46608	10.45632	0.66303	0.38574	0.21605	10.32064	11.00840	10.05814	0.16530	0.15914	0.12009	9.36861	9.72365	10.02428
33480	0.06668	0.08026	0.05683	10.25106	10.46385	10.44583	0.65630	0.38684	0.21277	10.31013	10.99359	10.06844	0.16995	0.16315	0.12934	9.37560	9.73096	10.02103
33640	0.07299	0.08170	0.06040	10.27020	10.49031	10.45939	0.66372	0.38572	0.21931	10.34424	11.00875	10.07549	0.16807	0.16192	0.12173	9.36248	9.73602	10.03083
33800	0.06907	0.08036	0.05584	10.26158	10.44681	10.43110	0.65746	0.38261	0.21306	10.29477	10.96990	10.03029	0.17037	0.16170	0.12442	9.37012	9.73228	10.03757
33970	0.07114	0.08384	0.05663	10.28748	10.50651	10.48655	0.66261	0.38763	0.21776	10.34900	11.00496	10.05626	0.16919	0.15968	0.12105	9.38230	9.73534	10.01026
34130	0.07064	0.08112	0.05579	10.24187	10.45395	10.43358	0.65790	0.38392	0.21232	10.31077	10.94448	10.03240	0.16853	0.15916	0.12363	9.34768	9.73833	10.02239
34290	0.07132	0.08140	0.05895	10.28403	10.49021	10.47474	0.65331	0.38617	0.21463	10.34271	11.02514	10.05700	0.16937	0.16266	0.12712	9.37583	9.72088	10.03051	32.69	6.0	0.00	7.62	0.01264	0.01289	0.01618	0.00785	0.00583	0.00640	0.00467	0.01264	0.01677	0.00679	0.00696	0.00876	0.01486	0.01091	0.01193	0.00220	0.00624	0.00872
34460	0.07127	0.08298	0.05943	10.24831	10.45271	10.42003	0.65735	0.38898	0.21507	10.27824	10.95154	10.02886	0.16985	0.16097	0.12412	9.34905	9.72312	10.01119
34620	0.07105	0.08177	0.05997	10.28304	10.48748	10.48372	0.65571	0.38462	0.21502	10.33361	11.00930	10.05027	0.17247	0.16357	0.12660	9.35951	9.72940	10.02596
34790	0.07429	0.08410	0.06177	10.27258	10.45532	10.44379	0.65932	0.39086	0.21812	10.29935	10.97780	10.02675	0.17076	0.16538	0.12551	9.34500	9.70005	10.01405
34950	0.07085	0.08385	0.05912	10.28053	10.48953	10.47859	0.66005	0.38854	0.21915	10.31883	10.99907	10.03935	0.17005	0.16157	0.12546	9.37026	9.71596	10.02470
35110	0.07118	0.08095	0.06046	10.26279	10.47479	10.44671	0.65753	0.38245	0.21535	10.31042	10.97179	10.05421	0.16803	0.15874	0.12263	9.33756	9.72359	10.01175
35270	0.07220	0.08244	0.05962	10.27873	10.48149	10.45489	0.65576	0.38863	0.21607	10.33129	10.99924	10.03565	0.16859	0.16148	0.12328	9.35809	9.72988	10.03268
35440	0.06938	0.08178	0.05850	10.28809	10.46242	10.45278	0.66047	0.38601	0.21531	10.29907	10.98210	10.04433	0.16838	0.15937	0.12062	9.36809	9.72393	10.02694
35600	0.06921	0.07853	0.05595	10.27597	10.48615	10.47173	0.64923	0.38224	0.21219	10.31717	10.98750	10.03727	0.16888	0.16267	0.12690	9.35545	9.71392	10.02108
35770	0.07379	0.08325	0.05995	10.25062	10.46639	10.44124	0.65438	0.38681	0.21721	10.31924	10.97216	10.04529	0.16992	0.16115	0.12453	9.36885	9.72346	10.02078
35930	0.07072	0.08280	0.05935	10.27134	10.48550	10.49057	0.66389	0.38736	0.21829	10.34287	11.01585	10.04571	0.16909	0.16054	0.12397	9.36826	9.74289	10.01198	32.64	6.1	0.00	7.79	0.01264	0.01289	0.01618	0.00785	0.00583	0.00640	0.00467	0.01264	0.01677	0.00679	0.00697	0.00876	0.01486	0.01091	0.01193	0.00220	0.00624	0.00872
36090	0.07250	0.08033	0.05887	10.27465	10.45973	10.44403	0.66122	0.38673	0.21591	10.30180	10.97006	10.03602	0.16720	0.16025	0.12144	9.35223	9.69544	10.02010
36260	0.07165	0.08152	0.05844	10.26045	10.49551	10.45047	0.66078	0.38774	0.21674	10.32090	10.99913	10.04886	0.17012	0.16108	0.12453	9.38101	9.73062	10.03788
36420	0.07144	0.07959	0.05803	10.27002	10.48410	10.45295	0.65179	0.38291	0.21501	10.31268	10.96649	10.03863	0.16565	0.15873	0.12231	9.33397	9.70557	9.99725
36580	0.07165	0.08021	0.05856	10.26687	10.46102	10.45132	0.65121	0.38524	0.21774	10.31822	11.01029	10.06426	0.16874	0.16159	0.12352	9.38271	9.73364	10.04034
36750	0.06912	0.07941	0.05713	10.27799	10.48016	10.44386	0.65967	0.38404	0.21491	10.30600	10.96076	10.03003	0.16897	0.15963	0.12263	9.32927	9.71398	10.00223
36910	0.07138	0.08048	0.05782	10.25252	10.45837	10.44948	0.66070	0.38961	0.21801	10.31389	11.00405	10.04868	0.17053	0.16187	0.12458	9.38261	9.74272	10.03340
37070	0.07165	0.08209	0.06038	10.27686	10.47195	10.45333	0.66004	0.38523	0.21624	10.31587	10.97755	10.03607	0.16862	0.15985	0.12247	9.33369	9.71602	10.01264
37240	0.07169	0.08335	0.06099	10.27495	10.46960	10.45773	0.66058	0.38990	0.21922	10.31399	10.99964	10.04188	0.17121	0.16393	0.12540	9.38072	9.72769	10.02588
37400	0.07379	0.08183	0.05817	10.25109	10.47872	10.46147	0.65970	0.38802	0.21533	10.32488	10.97109	10.04223	0.16805	0.15933	0.12203	9.34234	9.72158	10.01269
37560	0.07346	0.08129	0.05895	10.28180	10.47272	10.45308	0.66411	0.38908	0.21824	10.30213	10.99407	10.04587	0.17063	0.16384	0.12411	9.37797	9.72166	10.02909	32.69	6.1	0.00	7.69	0.01264	0.01289	0.01618	0.00785	0.00583	0.00640	0.00467	0.01264	0.01677	0.00679	0.00697	0.00876	0.01486	0.01091	0.01193	0.00220	0.00624	0.00872
37730	0.07101	0.08135	0.05658	10.26605	10.48286	10.44742	0.65707	0.38546	0.21510	10.32441	10.96938	10.02649	0.16840	0.15985	0.12768	9.33809	9.72688	10.02420
37890	0.07354	0.08270	0.06054	10.28564	10.46621	10.45325	0.66235	0.38871	0.21771	10.31797	10.99417	10.06602	0.16953	0.16298	0.12702	9.37306	9.73361	10.01528
38050	0.07134	0.07857	0.05661	10.25922	10.47332	10.44531	0.66267	0.38228	0.21425	10.31587	10.99441	10.05194	0.16639	0.15722	0.12292	9.36947	9.71117	10.02646
38210	0.06959	0.08150	0.05921	10.26027	10.46500	10.44657	0.66043	0.38640	0.22038	10.30652	10.98701	10.03415	0.16971	0.16282	0.12493	9.37986	9.72295	10.02284
38380	0.07358	0.08156	0.05643	10.25974	10.47658	10.45996	0.65437	0.38627	0.21615	10.32792	10.98994	10.03559	0.16723	0.16001	0.12259	9.36268	9.71422	10.00707
38540	0.07008	0.07947	0.05858	10.26539	10.46905	10.45447	0.66446	0.38612	0.21740	10.31100	10.98144	10.05654	0.16669	0.16134	0.12477	9.36013	9.73320	10.01567
38700	0.07120	0.08021	0.05701	10.27877	10.48006	10.45849	0.66537	0.38652	0.21521	10.31030	10.98977	10.02991	0.16977	0.16139	0.12185	9.36683	9.71294	10.02994
38870	0.07117	0.07945	0.05719	10.25892	10.48510	10.45267	0.65305	0.38231	0.21224	10.32218	10.97948	10.05451	0.17278	0.16319	0.12875	9.35881	9.73942	10.02884
39030	0.07550	0.08550	0.06149	10.28197	10.47741	10.44317	0.66163	0.39252	0.22022	10.29790	10.99417	10.04785	0.16974	0.16236	0.12611	9.36796	9.72468	10.03466
39200	0.07078	0.08289	0.05854	10.27689	10.47209	10.44400	0.66215	0.38956	0.21944	10.31602	10.99108	10.05811	0.16941	0.16170	0.12663	9.35976	9.71826	10.01998	32.69	6.1	0.00	7.68	0.01264	0.01289	0.01618	0.00785	0.00583	0.00640	0.00467	0.01264	0.01677	0.00679	0.00697	0.00876	0.01486	0.01091	0.01193	0.00220	0.00624	0.00872
39360	0.07169	0.08215	0.05886	10.26685	10.44379	10.44690	0.65810	0.38530	0.21541	10.32131	10.99404	10.01952	0.16805	0.15993	0.12159	9.34967	9.71795	10.02875
39520	0.06922	0.07887	0.05577	10.25897	10.46691	10.42102	0.65314	0.38351	0.21338	10.30692	10.96931	10.04076	0.16958	0.16509	0.12803	9.34750	9.72831	10.02041
39680	0.07111	0.08155	0.05740	10.27979	10.46974	10.46257	0.66190	0.38726	0.21544	10.31567	11.00492	10.02033	0.16916	0.16113	0.12303	9.36032	9.70941	10.00657
39850	0.06980	0.08132	0.05626	10.25762	10.46502	10.45316	0.64943	0.38256	0.21402	10.31370	10.98151	10.05579	0.17011	0.16253	0.12572	9.37542	9.72709	10.01742
40010	0.07334	0.08219	0.05973	10.26710	10.48754	10.43172	0.65743	0.38656	0.21798	10.30829	10.99039	10.05595	0.16897	0.15970	0.12532	9.36844	9.73473	10.04117
40180	0.07185	0.08288	0.05852	10.26713	10.49239	10.44768	0.65891	0.38816	0.21835	10.32587	10.96495	10.04170	0.17034	0.16279	0.12415	9.35306	9.71700	10.02005
40340	0.07128	0.08175	0.05856	10.27275	10.45878	10.44496	0.66423	0.38669	0.21654	10.28792	11.00565	10.02686	0.16947	0.16034	0.12216	9.36381	9.70439	10.01563
40500	0.07424	0.08142	0.06002	10.28848	10.51729	10.47850	0.66713	0.38733	0.21893	10.34993	11.00206	10.09506	0.17098	0.15940	0.12347	9.36362	9.73092	10.01342
40670	0.07083	0.08175	0.05678	10.24703	10.43308	10.40833	0.65812	0.38723	0.21573	10.28544	10.95027	9.99405	0.16858	0.16106	0.12305	9.36381	9.72345	10.04438
40830	0.07129	0.08132	0.05824	10.27940	10.47443	10.46811	0.65800	0.38970	0.21987	10.32260	10.99613	10.04847	0.17109	0.16265	0.12380	9.36519	9.72366	10.01298	32.64	6.1	0.00	7.78	0.01264	0.01289	0.01618	0.00785	0.00583	0.00640	0.00467	0.01264	0.01677	0.00679	0.00696	0.00876	0.01486	0.01091	0.01193	0.00220	0.00624	0.00872
40990	0.07157	0.08192	0.05847	10.25192	10.46493	10.43480	0.65243	0.38667	0.21587	10.30092	10.94817	10.01576	0.16879	0.15962	0.12135	9.33326	9.71904	10.02295
41160	0.07029	0.07988	0.05971	10.27755	10.48924	10.47405	0.66173	0.38609	0.21938	10.33812	10.99572	10.05068	0.17049	0.16339	0.12593	9.36010	9.72841	10.02193
41320	0.06829	0.07887	0.05669	10.26465	10.47367	10.45870	0.65015	0.38588	0.21555	10.29866	10.97363	10.01788	0.16788	0.15720	0.12321	9.34681	9.69782	9.99944
41480	0.06988	0.07907	0.05726	10.26354	10.48461	10.46453	0.65344	0.38327	0.21264	10.33742	11.00151	10.05919	0.17020	0.16084	0.12696	9.35303	9.72009	10.02168
41650	0.07164	0.08317	0.05748	10.26641	10.46497	10.42460	0.65461	0.38625	0.21679	10.29647	10.96007	10.03770	0.17010	0.16145	0.12412	9.34352	9.70985	10.00640
41810	0.07338	0.08077	0.05849	10.25553	10.46172	10.43857	0.65638	0.38788	0.21817	10.30859	10.99603	10.04466	0.16974	0.15930	0.12345	9.38427	9.74337	10.05470
41970	0.07014	0.07979	0.05770	10.28854	10.48685	10.44906	0.65044	0.38441	0.21656	10.29260	10.95692	10.02325	0.16864	0.16215	0.12563	9.32452	9.68996	9.98645
42140	0.07251	0.08048	0.05931	10.24746	10.45635	10.45536	0.66692	0.38876	0.21911	10.32983	10.99920	10.04897	0.16954	0.16120	0.12356	9.36670	9.74718	10.04990
42300	0.07065	0.08209	0.05882	10.29385	10.48814	10.46675	0.65844	0.38435	0.21557	10.31412	10.97305	10.03060	0.16950	0.16413	0.12855	9.33815	9.71772	9.99246
42460	0.07407	0.08268	0.05879	10.26343	10.46026	10.45273	0.65585	0.39009	0.22056	10.30963	10.97471	10.03178	0.16946	0.16384	0.12188	9.36211	9.73180	10.04322	32.69	6.3	0.00	7.70	0.01264	0.01289	0.01618	0.00785	0.00583	0.00640	0.00467	0.01264	0.01677	0.00679	0.00697	0.00876	0.01486	0.01091	0.01193	0.00220	0.00624	0.00872
42630	0.07171	0.07889	0.05675	10.27804	10.49251	10.45767	0.65048	0.38431	0.21608	10.31320	10.97897	10.04431	0.17088	0.16021	0.12490	9.36994	9.74098	10.01945
42790	0.07247	0.08108	0.05812	10.26533	10.45546	10.45525	0.66007	0.39261	0.21981	10.28919	10.96801	10.02539	0.16967	0.16053	0.12312	9.36041	9.71900	10.03601
42950	0.07178	0.08039	0.05631	10.27330	10.50142	10.45358	0.65301	0.38637	0.21500	10.33362	10.98932	10.07357	0.17041	0.16260	0.12812	9.36796	9.74061	10.01857
43120	0.07391	0.08316	0.05907	10.26255	10.47016	10.45866	0.65882	0.38736	0.21710	10.30747	10.97398	10.01336	0.16771	0.16177	0.12375	9.34449	9.71469	10.01417
43280	0.07018	0.07758	0.05620	10.27225	10.46090	10.44391	0.65259	0.38436	0.21295	10.30251	10.98757	10.05711	0.17106	0.16198	0.12635	9.35071	9.71259	10.01410
43450	0.07239	0.08312	0.05731	10.25134	10.46755	10.45228	0.65823	0.38646	0.21670	10.30387	10.98660	10.01162	0.16822	0.16025	0.12353	9.34336	9.70056	10.01116
43610	0.06925	0.07687	0.05658	10.26558	10.47311	10.45375	0.64957	0.38309	0.21536	10.31963	10.98936	10.01772	0.17225	0.16202	0.12878	9.34892	9.71469	10.02912
43770	0.07523	0.08180	0.05928	10.26164	10.46740	10.43377	0.65588	0.38927	0.21857	10.31342	10.97904	10.03190	0.17087	0.16219	0.12603	9.35919	9.72779	10.03000
43940	0.07468	0.08191	0.06092	10.28254	10.49012	10.46046	0.66177	0.39156	0.22101	10.31469	10.97746	10.03642	0.17236	0.16445	0.12490	9.34703	9.70818	9.99173
44100	0.07074	0.08042	0.05822	10.25210	10.46266	10.46632	0.66515	0.38339	0.21660	10.32939	11.00838	10.04223	0.16718	0.15908	0.12178	9.36906	9.71817	10.02901	32.64	6.0	0.00	7.71	0.01264	0.01289	0.01618	0.00785	0.00583	0.00640	0.00467	0.01264	0.01677	0.00679	0.00696	0.00876	0.01486	0.01091	0.01193	0.00220	0.00624	0.00872
44260	0.07170	0.08236	0.05999	10.27373	10.49257	10.46287	0.65352	0.38902	0.21972	10.32050	10.96716	10.03373	0.17094	0.16224	0.12490	9.34098	9.69150	9.97811
44430	0.07206	0.07914	0.05834	10.25199	10.46860	10.46669	0.65381	0.38657	0.21588	10.32238	11.01397	10.05925	0.16618	0.15898	0.12139	9.37510	9.71857	10.02308
44590	0.07181	0.08238	0.05944	10.26719	10.47825	10.44016	0.65948	0.38791	0.21963	10.30824	10.96702	10.02506	0.16929	0.16081	0.12451	9.33553	9.69820	9.98932
44750	0.07142	0.07856	0.05787	10.25634	10.45068	10.45428	0.65177	0.38497	0.21786	10.31903	10.98947	10.04306	0.16742	0.15997	0.12075	9.37510	9.73508	10.03622
44920	0.06959	0.07852	0.05833	10.28123	10.47344	10.44894	0.64564	0.38381	0.21448	10.29533	10.97389	10.01857	0.16837	0.16477	0.12527	9.32791	9.67216	9.98522
45080	0.07200	0.07971	0.06022	10.23697	10.45563	10.43590	0.66117	0.38603	0.21751	10.32257	11.02084	10.09128	0.16688	0.15918	0.12362	9.44111	9.82662	10.13159
45240	0.07162	0.07923	0.05672	10.36288	10.55255	10.51171	0.65808	0.38391	0.21319	10.29524	10.92269	9.93521	0.16936	0.16204	0.12451	9.23067	9.58707	9.87702
45410	0.07301	0.08305	0.06078	10.18063	10.40724	10.43206	0.65788	0.38760	0.21769	10.33832	11.04614	10.13338	0.17163	0.16217	0.12595	9.47576	9.83692	10.14760
45570	0.07364	0.08227	0.05904	10.38196	10.59751	10.53991	0.66085	0.39107	0.21973	10.35883	11.01749	10.09082	0.17027	0.16409	0.12411	9.34362	9.69058	9.91110
45730	0.07291	0.08149	0.05836	10.10981	10.30713	10.29999	0.65652	0.38554	0.21523	10.21691	10.87255	10.00988	0.16862	0.16333	0.12455	9.40481	9.82821	10.14356	32.69	6.0	0.00	7.66	0.01264	0.01289	0.01618	0.00785	0.00583	0.00640	0.00467	0.01264	0.01677	0.00679	0.00696	0.00876	0.01486	0.01091	0.01193	0.00220	0.00624	0.00872
45900	0.07367	0.08214	0.05891	10.45063	10.65434	10.63742	0.65613	0.38805	0.21793	10.43086	11.11214	10.12426	0.17178	0.16138	0.12352	9.33827	9.64985	9.92528
46060	0.06986	0.08046	0.05881	10.09983	10.27743	10.26085	0.65650	0.38378	0.21482	10.15680	10.82650	9.92026	0.16924	0.16231	0.12504	9.33404	9.74159	10.07615
46220	0.07327	0.08346	0.05895	10.38529	10.61293	10.59346	0.65427	0.38779	0.21756	10.44930	11.09620	10.13181	0.16999	0.15956	0.12517	9.37956	9.73010	9.99298
46390	0.07390	0.08219	0.05924	10.19460	10.36173	10.34214	0.65255	0.38655	0.21684	10.20408	10.91222	9.98476	0.17105	0.16361	0.12676	9.35993	9.74067	10.08554
46550	0.07130	0.08266	0.06104	10.37242	10.59280	10.56755	0.65618	0.38825	0.21760	10.40204	11.05766	10.07975	0.17066	0.15997	0.12440	9.33291	9.67667	9.96119
46710	0.06918	0.07967	0.05713	10.20862	10.44081	10.44633	0.65670	0.38706	0.21479	10.36421	11.07133	10.13560	0.17176	0.16416	0.12663	9.44152	9.77975	10.04375
46880	0.07378	0.08307	0.06165	10.21078	10.38481	10.36537	0.65729	0.39002	0.21831	10.23394	10.91427	10.00649	0.17177	0.16238	0.12701	9.40642	9.81916	10.15331
47040	0.07243	0.08105	0.06199	10.43786	10.64152	10.59532	0.66598	0.38711	0.21734	10.36024	10.98588	9.99807	0.17046	0.16065	0.12478	9.23962	9.57190	9.86551
47210	0.07259	0.08225	0.06012	10.12216	10.36498	10.37267	0.65652	0.39058	0.21750	10.30774	10.99480	10.07685	0.17005	0.16068	0.12524	9.44903	9.82684	10.14691
47370	0.07254	0.08315	0.06099	10.38666	10.58420	10.53535	0.66677	0.39202	0.22088	10.33224	10.98122	10.02133	0.17262	0.16243	0.12679	9.29516	9.63082	9.90016	32.69	6.1	0.00	7.71	0.01264	0.01289	0.01618	0.00785	0.00583	0.00640	0.00467	0.01264	0.01677	0.00679	0.00696	0.00876	0.01486	0.01091	0.01193	0.00220	0.00624	0.00872
47530	0.07206	0.08074	0.06146	10.13686	10.34622	10.34645	0.65729	0.38733	0.21869	10.25280	10.95094	10.02954	0.16832	0.15967	0.12209	9.40271	9.80923	10.14449
47700	0.07229	0.08440	0.06229	10.43434	10.64165	10.60807	0.66918	0.39325	0.22219	10.40680	11.06007	10.08058	0.17267	0.16655	0.12647	9.30903	9.64749	9.91169
47860	0.07330	0.08075	0.06022	10.12408	10.31999	10.30492	0.65979	0.38863	0.21816	10.19789	10.88131	9.97529	0.16975	0.16119	0.11972	9.35915	9.76574	10.10857
48020	0.07307	0.08238	0.06095	10.39601	10.62070	10.58471	0.65854	0.38978	0.22113	10.42787	11.09360	10.13213	0.17317	0.16262	0.12615	9.38748	9.71459	9.98294
48180	0.07354	0.08175	0.06103	10.18082	10.37799	10.37159	0.65336	0.38707	0.21665	10.23178	10.90163	9.93659	0.16813	0.16149	0.12559	9.30725	9.67144	10.00362
48350	0.07056	0.07987	0.05583	10.27140	10.50998	10.50405	0.65587	0.38493	0.21692	10.39720	11.09917	10.15369	0.16994	0.16500	0.12557	9.45235	9.79828	10.07360
48510	0.07497	0.08222	0.06072	10.29031	10.46999	10.42351	0.65565	0.38608	0.21830	10.26274	10.91381	9.96503	0.16967	0.16101	0.12559	9.29338	9.64958	9.95557
48680	0.07029	0.08056	0.05893	10.21073	10.44003	10.43211	0.65383	0.38104	0.21438	10.35223	11.04403	10.13787	0.17151	0.16142	0.12398	9.46597	9.83395	10.11652
48840	0.07411	0.08196	0.05965	10.34335	10.52678	10.47079	0.65489	0.38595	0.22012	10.26609	10.91227	9.95975	0.17133	0.16115	0.12226	9.27018	9.63227	9.95318
49000	0.07115	0.08047	0.05699	10.22949	10.45380	10.45200	0.65327	0.38520	0.21376	10.34356	11.03055	10.09080	0.17252	0.16050	0.12698	9.41592	9.77701	10.08099	32.69	6.1	0.00	7.67	0.01264	0.01289	0.01618	0.00785	0.00583	0.00640	0.00467	0.01264	0.01677	0.00679	0.00696	0.00875	0.01486	0.01091	0.01193	0.00220	0.00624	0.00872
49170	0.07556	0.08250	0.05953	10.32126	10.51803	10.49230	0.66041	0.38851	0.21845	10.31919	10.97153	10.01166	0.17209	0.16335	0.12792	9.30906	9.66122	9.96201
49330	0.07462	0.08284	0.06077	10.21911	10.44844	10.42850	0.67075	0.39346	0.22209	10.34978	11.01060	10.10223	0.17185	0.16426	0.12388	9.40114	9.78459	10.07300
49490	0.07244	0.08263	0.05762	10.31985	10.50963	10.48308	0.66321	0.38887	0.21838	10.32053	10.97706	10.01837	0.17147	0.16180	0.12650	9.32390	9.68900	9.96689
49660	0.07172	0.08140	0.05989	10.21977	10.42356	10.42279	0.65427	0.38639	0.21807	10.31578	10.98965	10.06405	0.17082	0.16177	0.12211	9.39291	9.77288	10.06396
49820	0.07027	0.07869	0.05917	10.31531	10.50861	10.48427	0.65970	0.38864	0.21585	10.31591	10.98948	10.02880	0.16704	0.15812	0.12292	9.34487	9.69834	9.99960
49980	0.07004	0.07757	0.05879	10.24028	10.44803	10.43098	0.66065	0.39241	0.22077	10.30827	10.97696	10.05876	0.16976	0.16366	0.12408	9.37721	9.77855	10.05155
50150	0.07118	0.08119	0.05845	10.32744	10.51514	10.51168	0.65692	0.38929	0.21685	10.32999	10.99705	10.03471	0.16881	0.15762	0.12182	9.33725	9.67341	9.97221
50310	0.06996	0.08210	0.06044	10.22729	10.44561	10.43326	0.66308	0.38951	0.22066	10.32454	11.00063	10.05988	0.17260	0.16297	0.12647	9.39565	9.76974	10.08508
50470	0.07277	0.08218	0.05906	10.33518	10.54044	10.50281	0.65982	0.38611	0.21839	10.33165	11.00025	10.03720	0.17091	0.15801	0.12376	9.33029	9.67915	9.97983
50640	0.07133	0.08240	0.06207	10.23385	10.43925	10.42239	0.65593	0.39312	0.22048	10.31259	10.98894	10.05261	0.17115	0.16095	0.12599	9.37229	9.74926	10.05990	32.69	6.1	0.00	7.66	0.01264	0.01289	0.01618	0.00785	0.00583	0.00640	0.00467	0.01264	0.01677	0.00679	0.00696	0.00876	0.01486	0.01091	0.01193	0.00220	0.00624	0.00872
50800	0.07235	0.08037	0.05802	10.31027	10.51713	10.49593	0.65571	0.38699	0.21810	10.32903	11.01303	10.07767	0.17030	0.15876	0.12325	9.37758	9.72424	10.00425
50960	0.07101	0.08304	0.06144	10.23509	10.44672	10.41689	0.66384	0.39092	0.21963	10.29924	10.94777	10.00660	0.17019	0.16407	0.12628	9.33507	9.72240	10.04310
51130	0.07157	0.08095	0.05950	10.29762	10.51819	10.50141	0.65544	0.38595	0.21589	10.35364	11.01807	10.07556	0.16886	0.16112	0.12625	9.37126	9.71931	9.99292
51290	0.07083	0.08111	0.06002	10.25032	10.45502	10.44993	0.65986	0.39015	0.22005	10.31976	10.98925	10.06133	0.17220	0.16451	0.12340	9.37739	9.73987	10.03959
51450	0.07210	0.08074	0.05945	10.27137	10.48044	10.44489	0.65738	0.38728	0.21774	10.29739	10.96777	10.03733	0.17051	0.16192	0.12398	9.35682	9.72464	10.02759
51620	0.07180	0.08309	0.05958	10.28279	10.49446	10.47625	0.65937	0.39071	0.22089	10.33649	10.99883	10.05208	0.16923	0.16159	0.12490	9.35437	9.73283	10.03370
51780	0.07249	0.08057	0.06173	10.28555	10.48991	10.45367	0.66575	0.38774	0.21803	10.31989	10.99252	10.05350	0.17088	0.16239	0.12382	9.35437	9.71660	10.00497
51940	0.06948	0.07874	0.05697	10.25382	10.44298	10.45173	0.65100	0.38525	0.21643	10.30865	10.98495	10.02579	0.17292	0.16347	0.12738	9.36097	9.74167	10.04783
52110	0.07520	0.08283	0.06062	10.29740	10.50175	10.48551	0.65750	0.39013	0.21828	10.33841	11.01448	10.06741	0.17089	0.16271	0.12459	9.35720	9.71321	10.00546
52270	0.07479	0.08391	0.06221	10.24629	10.45530	10.43303	0.65817	0.39006	0.21997	10.31035	10.99047	10.03144	0.17045	0.16177	0.12743	9.36616	9.71848	10.04766	32.69	6.1	0.00	7.66	0.01264	0.01289	0.01618	0.00785	0.00583	0.00640	0.00467	0.01264	0.01677	0.00679	0.00697	0.00875	0.01486	0.01091	0.01193	0.00220	0.00624	0.00872
52430	0.07209	0.08028	0.05845	10.28833	10.49360	10.46688	0.66090	0.38984	0.21913	10.33855	11.00469	10.06286	0.16801	0.16146	0.12451	9.35249	9.73053	10.01538
52600	0.07423	0.08213	0.05928	10.25851	10.46123	10.45450	0.66549	0.39371	0.22083	10.32825	10.99329	10.05442	0.16998	0.16488	0.12712	9.38041	9.73621	10.01635
52760	0.07328	0.07810	0.05868	10.25972	10.46097	10.43786	0.65405	0.38778	0.21792	10.29858	10.97610	10.05914	0.16939	0.16148	0.12304	9.38211	9.77589	10.05293
52920	0.07274	0.08278	0.06153	10.27875	10.47716	10.45246	0.66385	0.39053	0.22229	10.31477	10.97335	10.01379	0.17337	0.16415	0.12698	9.34335	9.72089	10.03154
53090	0.07260	0.08040	0.05998	10.28076	10.48617	10.47053	0.65422	0.38774	0.21613	10.31888	10.99515	10.05373	0.17313	0.16473	0.12717	9.35239	9.71430	10.00527
53250	0.07530	0.08308	0.06105	10.27739	10.46951	10.44674	0.66313	0.38890	0.22048	10.31777	10.98817	10.04433	0.16923	0.16258	0.12638	9.34938	9.72503	10.02442
53410	0.07301	0.07949	0.05839	10.27337	10.48390	10.46739	0.64976	0.38704	0.21502	10.34031	10.99791	10.04540	0.16704	0.15939	0.12325	9.36116	9.72438	10.00872
53580	0.06967	0.08062	0.06080	10.25389	10.44710	10.44534	0.66132	0.39139	0.22101	10.30755	10.98638	10.03570	0.17430	0.16386	0.12601	9.37673	9.74042	10.04825
53740	0.07306	0.08110	0.06103	10.28915	10.49793	10.45154	0.65565	0.38609	0.21777	10.32293	10.96610	10.04103	0.16883	0.16029	0.12422	9.34043	9.71675	10.00629
53900	0.07030	0.08034	0.05929	10.26929	10.46392	10.45603	0.65889	0.38817	0.21915	10.30241	10.98949	10.04702	0.17026	0.16328	0.12421	9.38607	9.73398	10.03829	32.64	6.1	0.00	7.68	0.01264	0.01289	0.01618	0.00785	0.00583	0.00640	0.00467	0.01264	0.01677	0.00679	0.00697	0.00875	0.01486	0.01091	0.01193	0.00220	0.00624	0.00872
54060	0.07178	0.07916	0.05820	10.28218	10.48478	10.47418	0.65513	0.38835	0.21875	10.32173	10.98680	10.04877	0.16977	0.16069	0.12324	9.35634	9.71605	10.00332
54230	0.07206	0.07985	0.05922	10.24531	10.46510	10.43177	0.65906	0.39083	0.21875	10.30022	10.95506	10.04849	0.17212	0.16273	0.12746	9.36294	9.72349	10.02608
54390	0.07210	0.08004	0.06064	10.28049	10.49535	10.47548	0.65712	0.39063	0.21744	10.33471	10.99613	10.05899	0.17136	0.15970	0.12163	9.34946	9.71571	9.99359
54560	0.07358	0.08063	0.06017	10.24061	10.44013	10.42657	0.66208	0.39048	0.21839	10.29180	10.97886	10.03771	0.17263	0.16272	0.12526	9.36228	9.72644	10.04190
54720	0.07056	0.08046	0.06106	10.28681	10.50089	10.47148	0.65763	0.38763	0.21751	10.34425	11.00399	10.05063	0.17162	0.16158	0.12425	9.34579	9.71229	10.01436
54880	0.07344	0.08208	0.06093	10.23198	10.43700	10.41099	0.66024	0.38978	0.21974	10.28834	10.96495	10.03121	0.17317	0.16485	0.12690	9.36567	9.72542	10.03048
55050	0.07229	0.07981	0.06045	10.28726	10.49638	10.48364	0.66210	0.38782	0.21735	10.33532	11.01702	10.06364	0.16963	0.16144	0.12715	9.38210	9.73653	10.01215
55210	0.07386	0.08151	0.06006	10.24795	10.43214	10.41523	0.66665	0.39254	0.22227	10.25882	10.93355	9.98845	0.17208	0.16374	0.12893	9.33290	9.69660	9.99653
55370	0.07370	0.08407	0.06096	10.25860	10.47902	10.48224	0.65952	0.38801	0.21747	10.34984	11.01819	10.05388	0.17091	0.15818	0.12531	9.38021	9.74061	10.02846
55540	0.07411	0.08175	0.06079	10.27623	10.47925	10.45241	0.67032	0.39272	0.22097	10.29238	10.95047	10.01073	0.17248	0.16331	0.12517	9.30506	9.67632	9.97368	32.69	6.1	0.00	7.71	0.01264	0.01289	0.01618	0.00785	0.00583	0.00640	0.00467	0.01264	0.01677	0.00679	0.00697	0.00875	0.01486	0.01091	0.01193	0.00220	0.00624	0.00872
55700	0.07265	0.08102	0.05929	10.25416	10.45772	10.45387	0.65907	0.38726	0.21812	10.32072	10.99762	10.03723	0.16987	0.15827	0.12455	9.36987	9.72391	10.03904
55860	0.06940	0.07717	0.05573	10.27472	10.47641	10.44676	0.65262	0.38637	0.21430	10.30550	10.98062	10.03193	0.17183	0.16208	0.12863	9.35488	9.71586	10.01482
56030	0.07486	0.08124	0.06013	10.27292	10.46729	10.45524	0.65892	0.39195	0.21932	10.31021	10.98584	10.03211	0.17078	0.16080	0.12319	9.35601	9.71363	10.01455
56190	0.07139	0.07961	0.05842	10.25091	10.45410	10.41725	0.65843	0.38449	0.21522	10.29193	10.94431	10.01381	0.17184	0.16535	0.12739	9.33492	9.71508	10.01671
56350	0.07195	0.08325	0.06242	10.27549	10.47433	10.46294	0.66037	0.39391	0.22064	10.31970	10.98980	10.03733	0.17039	0.16224	0.12324	9.35959	9.72235	10.01404
56520	0.07186	0.08269	0.06057	10.26620	10.46301	10.44621	0.65811	0.39086	0.22111	10.28866	10.95925	10.02425	0.17099	0.16224	0.12731	9.33652	9.69204	9.97920
56680	0.07183	0.08130	0.05890	10.25045	10.45515	10.44434	0.66317	0.38798	0.21889	10.31403	10.98887	10.03226	0.16918	0.16052	0.12011	9.36072	9.72421	10.02916
56840	0.07273	0.08226	0.06052	10.26061	10.47781	10.44295	0.66695	0.39077	0.22124	10.30942	10.96471	10.02372	0.17174	0.16188	0.12449	9.33483	9.70027	9.98506
57010	0.07179	0.08126	0.05851	10.25389	10.43719	10.44084	0.66280	0.38915	0.21888	10.30299	10.99249	10.02582	0.17355	0.16329	0.12722	9.35770	9.70793	10.01705
57170	0.07401	0.08347	0.06293	10.27949	10.49315	10.45687	0.66631	0.39319	0.22145	10.31615	10.98297	10.03968	0.17015	0.16348	0.12388	9.34442	9.69518	9.99587	32.69	6.1	0.00	7.75	0.01264	0.01289	0.01618	0.00785	0.00583	0.00640	0.00467	0.01264	0.01677	0.00679	0.00696	0.00875	0.01486	0.01091	0.01193	0.00220	0.00624	0.00872
57330	0.07166	0.08101	0.05746	10.23607	10.44707	10.45466	0.66302	0.38816	0.21587	10.31946	10.98975	10.01998	0.17005	0.16062	0.12502	9.36855	9.73656	10.04720
57500	0.07582	0.08366	0.06197	10.30190	10.48224	10.45258	0.65911	0.39041	0.21883	10.30456	10.97562	10.03514	0.17063	0.16097	0.12255	9.33351	9.71280	10.00656
57660	0.07174	0.07870	0.05823	10.26259	10.45006	10.42883	0.65651	0.38849	0.21727	10.27259	10.94456	9.99916	0.17072	0.15892	0.12239	9.35544	9.70707	10.01985
57820	0.07061	0.08008	0.06311	10.25961	10.48546	10.45759	0.66631	0.39182	0.22230	10.33014	10.98156	10.04984	0.17218	0.16644	0.12716	9.37147	9.73480	10.03790
57990	0.07301	0.08016	0.05988	10.30015	10.51331	10.49162	0.65995	0.38930	0.21953	10.32775	10.99034	10.03976	0.17110	0.16380	0.12636	9.32148	9.66192	9.94455
58150	0.07268	0.08115	0.06044	10.19849	10.42844	10.41108	0.66466	0.39084	0.21774	10.27903	10.92964	10.00718	0.17018	0.16125	0.12407	9.33643	9.71921	10.03427
58310	0.07215	0.08095	0.05870	10.31402	10.50856	10.51044	0.65904	0.38903	0.21739	10.35325	11.06884	10.10946	0.16873	0.16354	0.12538	9.41214	9.74939	10.04140
58480	0.07245	0.08179	0.05938	10.24255	10.42912	10.38195	0.66284	0.38852	0.21829	10.22268	10.88380	9.94600	0.17154	0.16032	0.12403	9.27959	9.67174	9.99582
58640	0.07135	0.07944	0.05841	10.29944	10.51438	10.50568	0.65884	0.38933	0.21603	10.38792	11.06263	10.11376	0.17264	0.16343	0.12493	9.41717	9.76172	10.04866
58810	0.07415	0.08174	0.06053	10.24920	10.44494	10.41315	0.66047	0.38934	0.21911	10.25547	10.91490	9.96826	0.17090	0.16143	0.12510	9.31774	9.68434	9.99684	32.69	6.2	0.00	7.73	0.01264	0.01289	0.01618	0.00785	0.00583	0.00640	0.00467	0.01264	0.01677	0.00679	0.00696	0.00875	0.01486	0.01091	0.01193	0.00220	0.00624	0.00872
58970	0.07148	0.08051	0.05661	10.25258	10.46825	10.45680	0.66037	0.38616	0.21583	10.34816	11.03079	10.10692	0.17299	0.16415	0.12721	9.42078	9.80662	10.08828
59130	0.07494	0.08362	0.06057	10.29335	10.45850	10.42241	0.66309	0.39065	0.22051	10.24234	10.89900	9.93701	0.17137	0.16075	0.12575	9.26493	9.64058	9.95696
59300	0.07464	0.08333	0.06153	10.22375	10.45196	10.45503	0.66594	0.39180	0.22051	10.34864	11.04736	10.11439	0.17276	0.16303	0.12533	9.44538	9.79896	10.08295
59460	0.07099	0.07851	0.05952	10.29589	10.49098	10.44764	0.66098	0.38601	0.21775	10.27521	10.90780	9.96433	0.16933	0.15890	0.12095	9.27427	9.65787	9.95741
59620	0.07438	0.08098	0.06021	10.22782	10.44690	10.44587	0.66963	0.39019	0.21987	10.33798	11.01394	10.09750	0.17163	0.16408	0.12586	9.42088	9.78153	10.07078
59790	0.07302	0.07938	0.05920	10.29293	10.47215	10.46638	0.65882	0.38784	0.21682	10.26747	10.94604	9.96083	0.16884	0.15965	0.12164	9.28765	9.65851	9.97114
59950	0.07357	0.08190	0.06118	10.24587	10.45064	10.43206	0.66552	0.39134	0.22157	10.32503	11.03957	10.11628	0.16874	0.16150	0.12408	9.42116	9.77027	10.07691
60110	0.07356	0.08192	0.05848	10.30698	10.51170	10.45922	0.66565	0.38805	0.21678	10.29746	10.93665	9.97895	0.16907	0.15998	0.12247	9.27876	9.64890	9.93573
60280	0.07274	0.08170	0.06153	10.20426	10.41867	10.41732	0.66000	0.39080	0.22016	10.31057	11.00380	10.08587	0.16900	0.16052	0.12323	9.41434	9.78276	10.09261
60440	0.07067	0.08011	0.05855	10.32773	10.52409	10.49603	0.66031	0.38651	0.21725	10.31161	10.98121	9.99578	0.16743	0.16137	0.12283	9.29573	9.63972	9.94770	32.64	6.2	0.00	7.80	0.01264	0.01289	0.01618	0.00785	0.00583	0.00640	0.00467	0.01264	0.01677	0.00679	0.00696	0.00875	0.01486	0.01091	0.01193	0.00220	0.00624	0.00872
60600	0.06837	0.07708	0.05824	10.18049	10.40140	10.39718	0.65616	0.38141	0.21330	10.29348	10.98293	10.05488	0.16969	0.16149	0.12619	9.41058	9.77252	10.06132
60770	0.07369	0.08141	0.06057	10.31360	10.51375	10.51106	0.66205	0.38887	0.21829	10.33793	11.00335	10.05602	0.17031	0.15945	0.12103	9.34683	9.69702	9.98069
60930	0.06854	0.07989	0.05606	10.20073	10.41520	10.38205	0.65091	0.38352	0.21435	10.26822	10.93422	10.00784	0.16835	0.16273	0.12308	9.36813	9.73176	10.05302
61090	0.07220	0.08172	0.05978	10.30712	10.52097	10.48639	0.66109	0.38766	0.21718	10.33800	11.00121	10.06808	0.17093	0.16351	0.12923	9.36700	9.71550	9.99714
61260	0.07443	0.08411	0.06138	10.22991	10.43328	10.40748	0.66859	0.38797	0.22043	10.27215	10.93456	10.02397	0.17190	0.16421	0.12490	9.36086	9.73077	10.01418
61420	0.07508	0.08165	0.06123	10.29689	10.50125	10.49281	0.66458	0.38759	0.22028	10.32894	11.01735	10.04835	0.17225	0.16133	0.12563	9.37077	9.70553	10.01148
61590	0.07136	0.08216	0.05961	10.23581	10.43562	10.40446	0.66068	0.38667	0.21710	10.27666	10.94785	10.02227	0.16850	0.15979	0.12204	9.33657	9.71166	10.00255
61750	0.07265	0.08205	0.05956	10.27628	10.47801	10.46144	0.65820	0.39251	0.22265	10.34132	11.01121	10.06307	0.17292	0.16423	0.12526	9.36945	9.72890	10.02264
61910	0.07338	0.08178	0.06057	10.25484	10.46167	10.42536	0.66134	0.38855	0.21808	10.29459	10.95186	10.01604	0.16648	0.15806	0.12079	9.33027	9.68677	9.99957
62080	0.07346	0.08307	0.06292	10.25375	10.45877	10.45074	0.66858	0.39682	0.22474	10.33100	11.01424	10.06603	0.17164	0.16555	0.12872	9.39087	9.73878	10.02272	32.69	6.2	0.00	7.70	0.01264	0.01289	0.01618	0.00785	0.00583	0.00640	0.00467	0.01264	0.01677	0.00679	0.00697	0.00875	0.01486	0.01091	0.01193	0.00220	0.00624	0.00872
62240	0.07410	0.08268	0.06111	10.26893	10.46603	10.45074	0.66231	0.38915	0.21849	10.31121	10.96785	10.01977	0.16919	0.16274	0.12300	9.33693	9.70002	9.99046
62400	0.07199	0.08010	0.06188	10.25075	10.46236	10.46516	0.66325	0.39069	0.22064	10.31001	10.99057	10.04105	0.17261	0.16457	0.12647	9.37066	9.72563	10.02274
62560	0.07274	0.08191	0.06059	10.26366	10.47053	10.45258	0.65780	0.38630	0.21695	10.30911	10.97142	10.02469	0.16507	0.16010	0.11897	9.32650	9.69654	9.99812
62730	0.06879	0.07961	0.05855	10.25934	10.46637	10.44533	0.64712	0.38375	0.21349	10.30950	10.99133	10.04521	0.16929	0.16159	0.12534	9.37122	9.71596	10.02048
62890	0.07482	0.08104	0.05882	10.25568	10.47867	10.45623	0.65657	0.38705	0.21752	10.32188	10.98074	10.01608	0.16877	0.16200	0.12294	9.33195	9.68872	9.99909
63050	0.06871	0.07803	0.05877	10.24500	10.43714	10.42187	0.64715	0.38276	0.21278	10.28950	10.98166	10.02775	0.17127	0.16129	0.12575	9.36443	9.72369	10.03286
