WetView ver 7.1	07-17-2018	11:25:00
AC9 Absorption and Attenuation Meter
00000266		; Serial number
2	; structure version number
Reserved
0.000000	0.000000		; Depth calibration
19200			; Baud rate
0.100000			; Path length (meters)
31			; number of temperature calibration bins
				12.59339	13.44920	14.48425	15.49668	16.50852	17.49564	18.50545	19.52458	20.50176	21.48889	22.47318	23.48707	24.50962	25.49370	26.49784	27.51372	28.50746	29.47237	30.47938	31.50214	32.50470	33.49235	34.50337	35.50914	36.50618	37.52058	38.51018	39.51308	40.49994	41.49866	42.47204	; temperature bins
a650	Blue	20.34952		-0.00383	-0.00415	-0.00430	-0.00391	-0.00363	-0.00317	-0.00269	-0.00237	-0.00179	-0.00130	-0.00099	-0.00071	-0.00015	0.00000	0.00004	-0.00001	0.00015	0.00036	0.00058	0.00101	0.00161	0.00132	0.00160	0.00169	0.00242	0.00273	0.00336	0.00365	0.00427	0.00566	0.00670		; offset and temperature correction info
a676	Green	20.51193		-0.00398	-0.00384	-0.00360	-0.00306	-0.00302	-0.00255	-0.00235	-0.00212	-0.00163	-0.00136	-0.00118	-0.00089	-0.00029	0.00000	0.00068	0.00082	0.00099	0.00137	0.00145	0.00212	0.00260	0.00252	0.00321	0.00354	0.00457	0.00535	0.00617	0.00648	0.00742	0.00887	0.01002		; offset and temperature correction info
a715	Brown	20.23230		-0.00421	-0.00394	-0.00391	-0.00291	-0.00264	-0.00192	-0.00204	-0.00179	-0.00188	-0.00239	-0.00180	-0.00187	-0.00099	0.00000	0.00084	0.00162	0.00188	0.00224	0.00321	0.00381	0.00466	0.00528	0.00588	0.00696	0.00859	0.01041	0.01148	0.01282	0.01333	0.01456	0.01617		; offset and temperature correction info
c510	Red	20.40042		-0.00261	-0.00247	-0.00258	-0.00225	-0.00203	-0.00197	-0.00199	-0.00203	-0.00154	-0.00103	-0.00069	-0.00019	-0.00007	0.00000	0.00011	-0.00021	-0.00042	-0.00056	-0.00040	0.00011	0.00036	0.00050	0.00077	0.00079	0.00050	0.00042	0.00043	0.00092	0.00147	0.00200	0.00232		; offset and temperature correction info
c532	Magenta	20.40760		-0.00248	-0.00265	-0.00278	-0.00279	-0.00296	-0.00292	-0.00238	-0.00206	-0.00129	-0.00096	-0.00092	-0.00052	-0.00009	0.00000	0.00007	-0.00049	-0.00136	-0.00107	-0.00079	-0.00065	-0.00074	-0.00105	-0.00152	-0.00192	-0.00236	-0.00269	-0.00252	-0.00233	-0.00172	-0.00128	-0.00067		; offset and temperature correction info
c555	Black	20.50654		-0.00053	-0.00063	-0.00106	-0.00094	-0.00068	-0.00055	-0.00053	-0.00039	-0.00028	-0.00025	-0.00011	-0.00035	-0.00007	0.00000	-0.00037	-0.00055	-0.00036	-0.00014	0.00019	0.00044	0.00032	0.00040	0.00050	0.00028	0.00014	0.00013	0.00030	0.00073	0.00117	0.00176	0.00241		; offset and temperature correction info
a412	LtBlue	17.15231		-0.01972	-0.01823	-0.01612	-0.01381	-0.01272	-0.01080	-0.00959	-0.00866	-0.00710	-0.00532	-0.00354	-0.00148	-0.00028	0.00000	0.00176	0.00297	0.00394	0.00440	0.00453	0.00487	0.00804	0.00856	0.01065	0.01248	0.01388	0.01439	0.01659	0.01881	0.02256	0.02450	0.02719		; offset and temperature correction info
a440	LtGreen	18.00171		-0.00729	-0.00642	-0.00581	-0.00502	-0.00426	-0.00349	-0.00244	-0.00218	-0.00179	-0.00101	-0.00046	-0.00006	0.00036	0.00000	0.00040	0.00045	0.00030	-0.00015	-0.00024	-0.00035	0.00012	-0.00013	-0.00033	-0.00089	-0.00142	-0.00189	-0.00231	-0.00205	-0.00140	-0.00140	-0.00146		; offset and temperature correction info
a488	Yellow	18.86491		-0.00113	-0.00102	-0.00106	-0.00064	-0.00027	-0.00020	-0.00030	-0.00037	-0.00047	-0.00059	-0.00052	-0.00012	0.00008	0.00000	0.00025	0.00012	-0.00013	-0.00043	-0.00065	-0.00076	-0.00025	0.00010	0.00090	0.00111	0.00113	0.00104	0.00073	0.00068	0.00120	0.00186	0.00258		; offset and temperature correction info
c650	Blue	20.46075		-0.00145	-0.00097	-0.00092	-0.00139	-0.00185	-0.00196	-0.00237	-0.00266	-0.00238	-0.00163	-0.00083	-0.00041	-0.00010	0.00000	0.00005	-0.00001	0.00015	0.00034	0.00029	0.00065	0.00101	0.00164	0.00126	0.00156	0.00175	0.00270	0.00287	0.00371	0.00407	0.00473	0.00534		; offset and temperature correction info
c676	Green	20.10118		-0.00170	-0.00144	-0.00149	-0.00177	-0.00188	-0.00194	-0.00198	-0.00196	-0.00177	-0.00156	-0.00140	-0.00091	-0.00033	0.00000	0.00050	0.00092	0.00110	0.00141	0.00167	0.00199	0.00216	0.00265	0.00269	0.00289	0.00315	0.00374	0.00367	0.00408	0.00486	0.00561	0.00646		; offset and temperature correction info
c715	Brown	19.91219		-0.01201	-0.01097	-0.00859	-0.00680	-0.00651	-0.00592	-0.00535	-0.00440	-0.00387	-0.00303	-0.00222	-0.00153	-0.00028	0.00000	0.00093	0.00149	0.00247	0.00322	0.00330	0.00427	0.00373	0.00464	0.00536	0.00551	0.00643	0.00733	0.00779	0.00884	0.00899	0.01021	0.01120		; offset and temperature correction info
a510	Red	19.21192		0.00201	0.00193	0.00158	0.00098	0.00089	0.00049	0.00011	-0.00016	-0.00016	-0.00005	0.00028	0.00025	0.00006	0.00000	0.00035	-0.00022	-0.00023	-0.00080	-0.00144	-0.00154	-0.00153	-0.00204	-0.00220	-0.00219	-0.00190	-0.00128	-0.00069	-0.00018	0.00068	0.00152	0.00241		; offset and temperature correction info
a532	Magenta	19.41084		-0.00097	-0.00072	-0.00060	-0.00081	-0.00062	-0.00071	-0.00040	0.00020	0.00028	0.00043	0.00000	-0.00035	0.00007	0.00000	-0.00011	-0.00059	-0.00080	-0.00098	-0.00137	-0.00162	-0.00163	-0.00130	-0.00073	-0.00018	0.00090	0.00185	0.00175	0.00247	0.00291	0.00327	0.00349		; offset and temperature correction info
a555	Black	19.69776		0.00171	0.00183	0.00183	0.00186	0.00191	0.00170	0.00115	0.00131	0.00097	0.00073	0.00060	0.00013	0.00015	0.00000	0.00014	-0.00029	-0.00066	-0.00082	-0.00116	-0.00139	-0.00134	-0.00167	-0.00119	-0.00093	-0.00048	0.00053	0.00111	0.00095	0.00178	0.00206	0.00273		; offset and temperature correction info
c412	LtBlue	19.91180		-0.02051	-0.01853	-0.01589	-0.01311	-0.01059	-0.00877	-0.00705	-0.00581	-0.00413	-0.00231	-0.00098	-0.00066	-0.00011	0.00000	-0.00013	-0.00085	-0.00170	-0.00170	-0.00302	-0.00330	-0.00429	-0.00551	-0.00626	-0.00775	-0.00978	-0.01181	-0.01113	-0.01108	-0.01116	-0.01192	-0.01291		; offset and temperature correction info
c440	LtGreen	20.06241		-0.01064	-0.00992	-0.00892	-0.00766	-0.00639	-0.00531	-0.00478	-0.00384	-0.00287	-0.00187	-0.00102	-0.00063	-0.00023	0.00000	-0.00007	-0.00053	-0.00090	-0.00119	-0.00169	-0.00197	-0.00226	-0.00257	-0.00260	-0.00289	-0.00394	-0.00470	-0.00481	-0.00493	-0.00520	-0.00580	-0.00620		; offset and temperature correction info
c488	Yellow	20.35984		-0.01125	-0.01082	-0.00966	-0.00833	-0.00726	-0.00661	-0.00579	-0.00500	-0.00389	-0.00278	-0.00167	-0.00113	-0.00041	0.00000	0.00055	0.00121	0.00187	0.00226	0.00222	0.00251	0.00281	0.00359	0.00414	0.00427	0.00401	0.00404	0.00486	0.00563	0.00638	0.00684	0.00718		; offset and temperature correction info
0.003500	0.004000	0.015000	0.020000	0.015000	0.020000	2500.000000	2000.000000	1000.000000	; maxANoise	maxCNoise	maxADifference	maxCDifference	minACounts	minCCounts	minRCounts	maxTempSdev	maxDepthSdev
0			; auxilliary capabilities
1			; acquisition binsize
0	6.62871	6.15485	6.17469	27.90578	11.76434	13.11626	8.38837	8.49426	8.02074	20.33477	25.68982	16.18837	7.00741	5.33275	4.72785	34.06047	25.99439	41.11677	21.99	6.2	0.00	7.34	0.01281	0.01293	0.01696	0.00779	0.00580	0.00636	0.00470	0.01271	0.01696	0.00677	0.00686	0.00902	0.01496	0.01102	0.01203	0.00218	0.00617	0.00869
170	1.66554	3.61237	2.60786	20.31242	24.15901	15.63353	8.14572	8.58767	6.54117	33.47261	21.63011	24.23148	5.46393	3.56675	4.49499	17.10820	29.47076	17.36304
330	5.27444	5.75556	4.72025	43.41611	27.18335	35.09580	8.44095	7.93717	6.14185	24.98398	24.72739	22.46485	5.08206	5.98912	4.96773	15.12172	30.48006	26.01587
500	6.03708	5.96666	4.60556	23.85378	12.48249	39.26070	8.61938	7.03031	11.27050	37.70146	13.98981	28.72401	10.77592	7.94366	6.85569	46.12465	50.23851	38.29311
660	6.84835	8.12776	6.44216	21.52935	31.02954	16.90068	10.64519	8.53918	7.58968	28.01878	17.67251	21.22944	7.99436	6.56696	5.31344	27.85138	20.78332	35.67238
830	6.08534	6.20487	5.95222	25.91259	29.67886	16.71258	12.16728	9.28620	8.97539	24.36060	22.87456	16.25848	10.70511	6.42163	7.61490	20.74670	18.35898	18.34669
990	7.55806	9.16598	7.56231	27.37924	29.05470	30.16649	12.17136	8.38165	5.95250	14.78660	22.98342	19.93147	8.29858	5.10251	5.89137	25.84495	49.68206	28.91977
1160	7.31009	7.30461	3.73427	34.92731	21.64849	18.05694	9.61284	7.87135	9.31176	21.19047	20.98641	16.35313	8.08805	5.59224	5.77899	20.74730	30.81895	22.02590
1320	5.73162	5.59678	4.31854	27.03370	23.12378	25.16975	9.45369	7.78615	3.72761	37.76237	36.99154	23.22495	8.71583	9.49269	9.05208	33.71279	23.13540	25.65749
1490	6.57326	5.50244	5.23545	27.48111	22.75933	26.22317	8.18214	5.96872	4.37168	57.53013	33.94580	32.57624	5.68713	5.37110	4.17711	26.63601	27.91027	33.58082
1650	5.42040	5.70999	4.87742	24.53927	31.22686	41.81897	9.07536	9.30339	7.51821	19.33243	21.33189	11.87473	8.74009	7.37047	9.68097	23.92679	23.18253	39.80560	21.92	6.0	0.00	7.44	0.01281	0.01293	0.01696	0.00779	0.00580	0.00636	0.00470	0.01271	0.01696	0.00677	0.00686	0.00902	0.01496	0.01102	0.01203	0.00218	0.00617	0.00869
1810	7.55926	3.97874	7.06909	20.98879	27.22123	25.78066	11.88366	10.36454	11.85347	25.37957	21.26879	38.42624	8.62170	8.35484	7.30029	36.02598	17.71683	27.90255
1980	5.02437	3.87162	5.13238	42.58293	31.84351	21.58987	7.54832	8.68216	6.15368	16.63597	13.71554	20.99755	2.89538	3.95368	5.05569	34.98885	23.09731	32.93714
2140	5.30271	3.27837	2.57046	41.83497	44.32788	17.52401	12.49087	8.38442	9.15128	24.27156	26.45422	25.33212	8.87644	7.13441	7.59683	42.31361	31.12299	28.76655
2310	5.29931	6.16563	4.85984	44.09680	28.52810	46.52327	11.00636	6.67318	4.55258	26.19244	25.51913	29.18372	4.09468	5.39337	6.47483	25.89341	34.04454	40.78780
2470	4.24570	7.03807	4.46977	32.58820	37.18959	42.89339	7.17256	8.26458	5.58053	55.08976	47.15149	45.23977	6.42988	5.75390	7.03238	41.09501	42.40369	39.50240
2640	5.18002	3.46638	4.05109	34.27328	32.83894	27.97322	10.41044	4.89093	5.80122	50.30581	32.83158	35.82301	6.74095	6.58605	7.34376	21.32377	25.48736	25.87420
2800	4.33373	3.42666	3.54389	26.97667	19.57609	16.64234	7.45840	8.87108	5.66561	23.66605	22.75927	33.17281	4.78362	3.09888	2.67057	38.85493	35.93102	32.83083
2970	3.15622	3.32421	1.97413	18.25575	27.00926	24.71943	9.79263	5.38169	3.78770	31.32582	21.80333	18.24870	2.93565	2.67335	6.68548	33.36854	35.76212	35.02587
3130	5.24360	5.50977	6.13706	21.64420	25.23557	25.32838	8.33848	8.08765	6.58006	30.82038	23.84144	35.82690	7.00821	2.66991	3.50277	17.72505	15.34828	29.17463
3300	4.89747	3.17336	3.54652	12.18605	26.63463	27.72485	7.97866	4.82344	3.01239	11.37586	19.53841	13.23002	2.34196	2.38854	3.31347	22.04276	24.06194	15.65207	21.92	6.1	0.00	7.43	0.01281	0.01293	0.01696	0.00779	0.00580	0.00636	0.00470	0.01271	0.01696	0.00677	0.00686	0.00902	0.01496	0.01102	0.01203	0.00218	0.00617	0.00869
3460	5.46056	5.82751	4.83549	18.29202	28.60980	32.60665	10.62235	5.00238	4.72897	18.19994	41.88927	24.20434	3.06381	3.28850	2.76030	45.25148	42.14274	43.12469
3630	2.87433	4.66070	4.18029	26.81092	28.83780	32.04059	8.62940	11.18426	9.03430	38.99864	41.14451	31.38772	7.22201	8.10295	5.43861	24.65828	25.28265	25.90492
3790	2.96521	6.89620	5.66029	17.43732	16.35204	18.62863	7.52624	8.65273	4.50750	19.03279	13.75492	18.90275	4.57109	4.27354	3.22053	24.44456	15.69555	36.88639
3960	1.75288	2.88971	1.58160	31.15932	23.94890	19.35544	6.52515	6.35588	5.44220	20.58544	21.81659	30.11623	6.26023	5.51339	8.86200	33.88076	24.16705	14.56205
4120	9.48385	4.30861	3.93017	30.43070	26.02661	24.68805	8.83123	5.49344	4.74143	28.04404	16.22290	21.61301	3.61945	3.32202	4.45730	38.86221	39.33334	32.72912
4290	2.59406	3.52108	3.29217	34.87129	42.41435	28.18511	12.03673	15.10381	12.44891	54.75157	33.31458	24.30149	9.70301	6.63863	9.42832	18.34285	47.26418	54.25691
4450	9.81504	7.69624	6.67840	32.29386	31.86480	33.49653	9.26722	8.63656	9.51027	15.27723	17.46713	17.07492	8.09388	5.10571	4.87145	26.43182	27.91308	20.03587
4620	3.97282	4.19093	2.28144	25.85562	34.67089	21.39573	8.61595	4.73462	6.32741	18.93874	29.65978	21.46843	5.51929	5.75646	6.69969	22.42702	17.18086	33.51860
4790	2.19269	5.65449	7.46954	32.70266	23.23745	41.66311	8.56647	5.88186	4.47462	33.95783	22.28285	35.10651	9.18108	7.17558	7.86960	45.84114	61.21250	65.46729
4950	7.58993	6.76418	5.76492	73.80666	33.90987	25.31671	11.66802	8.81162	6.53310	28.21973	32.95045	25.78013	7.76425	10.01908	9.32206	35.61629	65.09469	49.51520	21.92	6.0	0.00	7.44	0.01281	0.01293	0.01696	0.00778	0.00580	0.00636	0.00470	0.01271	0.01696	0.00677	0.00686	0.00902	0.01496	0.01102	0.01203	0.00218	0.00617	0.00869
5120	4.96988	3.95961	6.83341	30.89354	20.36506	51.47450	8.11080	8.17450	6.91418	15.94522	38.71356	21.78971	4.11558	4.98227	5.58769	36.57915	36.03383	33.60408
5280	3.79887	2.62024	3.27261	34.89759	34.94626	42.63324	9.20797	9.52478	10.94076	19.03672	26.02464	25.56437	3.26813	4.39062	2.87993	34.07422	32.14310	19.14047
5450	7.29292	5.89616	4.82650	20.56395	28.36544	23.32572	10.25776	7.84406	6.70890	20.35214	25.55101	23.46628	8.73369	7.45307	7.63529	24.45566	35.13868	25.09277
5610	2.97896	3.98695	5.39407	50.13443	18.09940	24.97899	10.78302	7.81800	4.58760	39.07682	11.66221	20.34241	5.09135	3.83229	7.75807	34.62770	25.55061	46.82951
5780	4.85136	3.70468	7.11154	53.16112	25.03194	19.44624	13.01721	9.52627	10.81543	21.89854	30.94055	36.79707	9.18733	10.56178	12.32704	61.90336	44.55189	54.11369
5940	7.48298	6.15726	4.80157	33.54402	28.87659	47.08466	8.61600	6.46782	6.58982	30.15642	20.98435	18.90327	6.79867	5.52494	5.19583	20.67213	11.35770	16.02303
6110	1.93433	4.31651	3.13577	20.96798	28.50465	30.29829	7.65499	7.30117	9.52755	38.30480	22.55254	33.48421	8.36813	7.74099	3.86625	43.78404	19.18797	20.39113
6270	5.27549	3.16083	5.35136	24.74138	23.47624	23.92149	8.66296	6.27057	6.12572	27.02877	24.42528	28.56578	5.92825	6.45988	6.54994	35.22880	20.84012	19.02461
6440	3.94340	6.00805	5.61124	31.98909	26.33167	22.43913	9.12294	6.95693	6.43012	23.46552	24.21508	32.32216	7.34359	6.58145	2.95587	27.95301	33.24970	23.88247
6600	2.56782	2.53554	5.28783	36.88917	55.86934	54.29290	10.68609	7.21710	4.46219	37.70828	30.60605	33.86101	4.32339	4.31390	3.61246	39.06756	25.60056	24.43559	21.99	6.0	0.00	7.30	0.01281	0.01292	0.01696	0.00779	0.00580	0.00636	0.00470	0.01271	0.01696	0.00677	0.00686	0.00902	0.01496	0.01102	0.01203	0.00218	0.00618	0.00869
6770	5.13433	3.13468	2.85051	24.57918	16.95150	23.31608	10.00647	6.63239	5.86379	13.33926	15.77945	18.69601	5.21702	4.87098	3.23450	39.02304	34.83052	39.10007
6930	1.18371	2.39238	1.89655	21.34116	30.76315	16.03450	5.89672	3.74052	4.28250	24.92290	10.66570	12.71933	3.35021	2.73151	4.59028	25.35304	19.99057	19.19591
7100	3.18610	3.43546	4.65158	18.10073	18.92386	21.00647	6.87654	8.10033	5.85807	14.47573	13.60750	17.04506	5.01640	3.04244	2.54340	22.21790	19.49392	23.25948
7260	1.82599	2.13913	2.05225	10.63028	9.09974	16.90378	7.88787	4.06367	2.86260	14.60735	12.23902	13.90465	5.32649	5.64210	5.53825	31.22431	30.38277	19.51151
7430	5.31926	4.22039	3.36124	31.19480	41.41232	37.24817	11.46965	11.22686	7.71246	38.47367	35.51511	26.62964	3.27045	2.86819	3.26052	23.50776	31.68795	26.89815
7590	2.12466	2.30459	1.00650	20.31498	24.32424	15.81661	7.42911	6.30701	2.83074	19.21667	19.11422	19.71758	3.56982	3.60869	3.23471	13.29993	16.76297	13.09461
7760	2.41451	1.39421	1.95968	27.07928	26.97731	15.16849	9.61624	6.19760	5.27167	14.34974	15.68231	12.43161	7.19102	4.97740	6.35112	13.11163	10.98512	27.09180
7920	4.17259	4.50842	2.11228	30.58433	18.23094	40.61029	11.52640	8.44049	6.23865	14.52651	19.50926	23.44481	4.42557	4.34931	6.73740	33.31148	44.61433	31.92208
8080	4.26691	6.61681	6.99728	21.89100	17.12279	13.10832	9.56797	10.45722	9.61823	21.67970	26.00900	36.28087	7.33768	7.40049	5.76847	24.46012	28.91623	34.56698
8250	5.64509	4.38966	4.48568	25.25520	32.26464	26.93822	10.59577	5.88612	3.88073	23.23375	24.00322	32.57266	5.42730	6.80602	4.30668	13.81160	12.62202	16.05125	22.05	6.1	0.00	7.40	0.01281	0.01292	0.01696	0.00778	0.00580	0.00636	0.00470	0.01271	0.01696	0.00677	0.00686	0.00902	0.01496	0.01102	0.01203	0.00218	0.00618	0.00869
8410	3.13260	3.37337	2.86096	22.91976	28.37342	26.82385	10.51085	7.20543	3.77733	22.10493	26.62056	43.22767	4.02734	4.29460	7.08972	29.23759	22.80775	22.19371
8570	7.48520	4.84306	4.00683	27.01503	24.69733	11.83481	13.62857	7.31621	4.82986	53.37156	21.22179	17.84199	6.13675	5.11295	5.91492	37.76218	30.11632	21.17427
8740	4.85155	4.44227	2.56414	19.75702	24.01795	13.84550	6.72141	6.73667	6.18796	31.37542	12.11218	13.25089	8.31756	7.05276	4.49756	21.60437	18.07396	23.65656
8900	6.05774	6.23177	5.40165	25.29372	26.95476	45.45839	15.35070	11.32625	6.73476	39.86922	31.09973	30.25891	5.30634	5.59454	5.48143	39.93100	13.43094	19.27543
9070	5.57950	5.19882	1.83314	33.66032	17.78790	38.97432	10.19045	10.46719	7.89903	25.04652	22.76428	21.01691	5.64310	8.28562	9.53467	19.51822	20.70135	35.10135
9230	5.92413	5.77158	3.02637	25.54359	25.48652	32.44481	11.37769	7.69140	3.50122	36.32795	19.31820	9.61713	3.50765	6.05512	3.79203	27.94777	19.33422	17.07198
9400	5.15074	8.50613	4.17354	18.91474	14.01827	18.92147	9.02233	7.25820	4.21175	31.01445	24.17478	18.32368	7.49021	5.22781	8.35542	30.85521	24.69145	20.09752
9560	4.69629	3.49164	3.12238	40.93017	25.76389	17.16691	6.77511	6.28625	7.91347	28.28180	29.31989	29.26005	6.31266	4.00789	6.67567	28.56182	45.99750	23.54407
9730	4.32159	4.49684	2.96756	61.91062	38.81146	48.00324	5.76908	7.32497	7.30824	26.62827	33.07348	36.37093	8.72636	12.54344	8.27441	41.93500	40.30918	47.56432
9890	9.40058	8.27151	8.76265	64.82526	48.56133	60.38551	13.57193	9.37737	6.47998	49.73709	45.48909	48.21930	8.82685	5.83154	4.62439	36.50215	36.77772	29.44235	21.99	6.1	0.00	7.33	0.01281	0.01292	0.01696	0.00779	0.00580	0.00636	0.00470	0.01271	0.01696	0.00677	0.00686	0.00902	0.01496	0.01102	0.01203	0.00218	0.00618	0.00869
10060	7.72155	5.72167	4.88355	38.31229	32.42483	33.96177	12.57720	12.06953	6.33790	16.06249	35.86958	37.96182	7.62490	8.08365	6.27654	57.15095	43.19877	56.95181
10220	9.59365	7.33365	4.74537	36.20902	19.73196	21.20127	13.01884	9.15502	6.48116	37.89352	35.39432	32.47301	4.88266	6.79655	12.54043	20.07514	44.18226	46.03697
10390	10.75824	9.31018	7.93811	52.69099	58.96101	29.17915	14.90439	11.32715	6.59452	18.42795	38.25458	79.70730	7.59880	5.93449	9.40119	75.55645	82.22094	52.17118
10550	5.85346	6.06712	9.90079	44.50636	44.69257	25.77550	9.73746	5.93306	7.60712	37.49160	28.71327	39.83731	5.71639	4.95910	5.54387	79.53993	80.70016	88.88805
10710	5.61222	6.00789	3.10451	38.34908	34.81966	45.04700	8.10480	5.82384	3.58544	33.25652	32.98319	15.76210	3.91659	5.38150	7.41457	60.90408	38.63096	29.66565
10880	4.69851	4.22938	3.20396	24.47083	46.27924	13.49729	10.90324	11.27098	4.93073	29.45128	22.90390	22.79163	2.87034	3.02398	5.56601	37.45813	22.89234	15.37664
11040	5.44213	2.90500	5.91735	41.69714	18.31957	34.16795	12.38491	9.48597	4.11605	30.74921	29.05383	41.91776	4.63228	5.58484	4.85979	24.95766	37.87088	29.36102
11210	7.42887	3.58163	6.34429	31.77550	30.20016	13.07768	10.18602	7.48095	7.76707	33.99149	30.00172	34.93779	6.33698	4.34905	3.38734	25.17117	23.46851	36.53988
11370	7.79898	2.99253	3.35554	16.95957	17.30814	16.67677	6.17834	7.31101	8.03947	19.45094	19.69433	14.10841	7.42446	5.37705	5.37082	26.35351	20.92633	35.75183
11530	5.63783	7.30617	2.81696	36.72045	26.22063	36.15950	11.81296	7.88624	5.36407	25.80318	32.11069	26.50657	6.67646	7.78703	6.23525	34.34726	41.38186	25.43554	21.92	6.1	0.00	7.35	0.01281	0.01293	0.01696	0.00778	0.00580	0.00636	0.00470	0.01271	0.01696	0.00677	0.00686	0.00902	0.01496	0.01102	0.01203	0.00218	0.00618	0.00869
11700	11.85083	4.94489	7.34374	24.19042	24.44389	12.33377	11.46587	7.95490	3.31900	16.33123	14.11989	11.50390	8.89173	2.85932	3.42681	15.61080	15.36657	43.28613
11860	3.86146	7.11194	5.77252	30.87741	31.86985	26.17971	12.27116	12.26231	7.57976	23.49668	17.52846	29.95384	6.70828	3.36153	6.88882	23.39675	18.27893	17.12219
12030	5.91585	7.65771	5.03570	16.14743	20.98870	13.83346	9.76408	7.17678	6.76017	20.57560	16.99898	15.72783	2.65799	3.45366	3.61224	42.78322	16.46866	19.19548
12190	1.90324	1.95429	2.41116	19.37675	22.27084	14.78581	9.55448	8.53033	6.72350	11.99448	17.26574	9.04385	3.27030	4.09678	3.88146	13.38260	8.23969	8.69309
12350	2.34894	1.89873	1.73421	12.77159	22.97589	15.75200	8.03312	6.07118	4.65082	12.69179	21.29940	19.59594	4.01936	2.64428	4.75031	31.59172	29.90516	27.07587
12520	2.95275	1.91656	0.89395	41.42245	38.14205	19.10342	6.79010	5.62974	4.55469	28.44009	26.09471	27.33960	5.09005	3.94571	2.24764	52.63923	22.01125	22.54671
12680	3.39253	4.34899	3.52841	14.53409	14.61643	26.83425	6.34914	6.69673	4.96462	24.82438	17.89128	27.89340	5.78979	6.01819	5.72206	47.06269	33.85348	39.86249
12850	4.13206	6.98674	2.94840	23.34737	23.80534	25.62167	10.38053	9.11012	7.39364	19.03178	23.05173	21.62943	5.51641	4.98493	3.90103	16.68779	30.55098	19.38329
13010	2.76687	4.57314	7.04104	18.44402	17.93026	9.58697	6.80401	5.56927	4.28320	11.10924	13.41251	8.68375	7.23395	5.34949	5.00021	23.65680	19.02930	15.65613
13180	4.13222	2.00904	1.45253	17.85254	25.57179	17.17073	6.23563	5.76083	5.65710	15.92644	19.13866	25.67164	4.11057	6.91048	4.57858	20.25226	29.88931	25.20634	22.05	6.3	0.00	7.35	0.01281	0.01293	0.01696	0.00778	0.00580	0.00636	0.00470	0.01271	0.01696	0.00677	0.00686	0.00902	0.01496	0.01102	0.01203	0.00218	0.00618	0.00869
13340	2.74854	3.76577	3.85044	20.98238	14.88037	9.11720	9.45023	9.92996	6.41888	19.06277	20.81056	27.88620	4.05219	3.83648	3.52253	27.62264	25.09848	19.80585
13500	5.10927	4.67116	5.60239	27.49577	24.99357	28.18085	7.16471	3.88662	4.37015	35.15715	22.05085	38.85109	5.05383	5.28258	6.89174	32.84639	40.84403	32.03927
13670	4.25212	4.64814	2.74777	32.76876	25.82171	25.87656	12.05414	4.55836	3.74632	21.80935	10.09012	29.84747	3.44000	4.38196	4.03062	20.70153	25.28562	16.55166
13830	5.43003	3.98443	3.19993	31.82060	34.67040	16.27091	11.26500	9.76202	5.96978	38.36184	17.44818	40.86165	4.30205	3.28496	3.29800	26.73941	19.90351	25.59335
13990	3.66258	2.03804	2.27940	29.75300	19.80481	9.21927	9.26560	9.21738	8.24076	24.88791	22.61290	25.66424	4.24595	5.93352	4.15676	26.61020	33.47874	11.67939
14160	3.79354	5.47925	3.35069	17.63808	27.53146	21.59827	13.03595	10.13282	7.37417	16.14679	11.99705	14.91881	2.17546	3.76601	3.84338	19.23484	23.71174	13.37457
14320	1.77127	1.58829	2.85465	20.04733	19.35399	17.99299	6.23907	5.16981	7.78492	15.98224	27.60325	29.96881	3.46461	3.18613	5.00084	17.74702	16.76367	27.95012
14490	4.45889	2.67683	3.84722	31.28173	17.64071	17.92334	9.08137	7.71398	4.49467	10.47959	12.58206	29.88501	3.30027	4.12575	2.28696	16.31118	20.36429	27.54810
14650	2.83726	2.18563	2.99110	25.97178	19.85837	9.32283	8.50930	7.48932	7.79718	10.06964	19.99020	10.91485	4.89294	3.65250	3.81933	16.17422	18.27797	14.64574
14820	3.20908	4.53383	4.06011	17.68595	17.70864	17.51626	8.69602	5.94833	4.66481	26.83129	21.18615	16.54275	3.86749	2.57990	3.82371	23.78972	17.47425	20.03202	21.99	6.0	0.00	6.48	0.01281	0.01293	0.01696	0.00778	0.00580	0.00636	0.00470	0.01271	0.01696	0.00677	0.00686	0.00902	0.01496	0.01102	0.01203	0.00218	0.00617	0.00869
14980	5.91515	3.06996	1.75264	17.80654	19.85575	11.80598	8.26242	4.72701	6.36941	25.61423	25.95634	23.87852	3.98379	2.94181	3.48269	17.02109	37.79184	47.97041
15150	2.20687	3.95770	4.13045	41.17359	29.81346	35.28994	9.26737	4.82495	3.12057	34.49200	31.10348	22.91978	3.29949	3.11083	3.31472	26.74604	21.25363	27.09777
15310	1.71809	1.82050	2.31192	17.06453	20.61309	17.11272	6.90538	6.51778	8.46516	12.98242	33.21700	33.72628	4.60492	6.56880	6.00108	28.29668	28.27027	33.66597
15480	5.73196	5.99938	4.76788	17.47072	17.25665	29.60983	9.47907	6.17711	5.99338	29.72438	20.36105	12.30497	3.30772	3.07905	3.29220	40.96486	36.80403	26.62312
15640	3.92885	3.75022	4.12612	19.72745	21.97359	29.60541	7.21679	5.31491	5.81917	22.47393	25.56820	35.78933	3.42734	2.90750	5.31813	41.87201	44.48245	19.56552
15800	4.71455	4.89769	5.47149	34.31881	27.19401	29.09579	10.90923	6.96447	3.55884	30.13762	18.77603	14.74506	3.32808	2.21707	2.27011	28.79965	32.40894	24.43828
15970	2.34987	3.30794	3.39447	27.40398	27.58650	24.93136	7.95636	8.48505	4.29082	17.51243	13.31717	27.98438	3.00176	3.85429	2.33207	35.78719	17.27523	15.09756
16130	3.14104	2.79468	5.17179	12.86687	15.19350	15.73984	6.74593	5.64501	3.48665	16.97623	14.10218	14.64645	3.34721	3.44052	3.46170	18.23959	27.85636	25.39396
16300	6.47676	6.36979	5.58761	40.03563	29.47647	47.03354	12.48995	9.35815	9.39007	50.17594	24.56776	29.12348	8.16249	8.12503	9.05462	22.70459	21.94462	33.91989
16470	6.91034	5.79484	8.01840	28.51098	38.65156	32.89019	10.25410	7.17614	5.91218	26.47129	35.16405	34.12362	5.57080	3.82841	3.89987	32.22494	16.22057	35.93699	22.05	5.9	0.00	7.33	0.01281	0.01293	0.01696	0.00779	0.00580	0.00636	0.00470	0.01271	0.01696	0.00677	0.00686	0.00902	0.01496	0.01102	0.01203	0.00218	0.00617	0.00869
16630	3.47429	4.57695	4.82061	25.31683	37.05605	24.37062	8.31844	4.91349	4.21668	24.38649	28.44111	16.82685	3.10423	4.04040	4.76642	39.07984	26.91336	32.94506
16790	2.48218	4.26231	4.18740	24.30113	33.27302	27.77747	8.89118	7.63821	6.61907	17.55367	26.24170	18.14072	6.10771	5.98107	4.47884	33.94520	29.31790	22.33041
16960	2.69157	6.94347	4.74031	27.38885	33.32787	61.91391	7.03019	7.50892	4.89504	25.12550	32.08526	52.81187	5.17761	5.32868	4.55902	45.45586	28.91715	27.97964
17120	6.28678	3.79458	4.54099	24.09954	16.40924	12.49084	9.05825	7.74791	4.77515	23.49213	27.24308	12.34775	4.15700	6.55116	7.17238	30.99931	25.79770	29.97883
17290	4.86040	5.03218	4.69161	12.96719	16.54773	20.88680	10.23935	8.49628	4.85455	29.70959	20.62986	17.36554	5.48243	4.55016	3.48537	65.75919	20.46800	29.91674
17450	3.07282	4.34649	3.62975	10.76650	12.89579	26.00083	8.60122	6.64087	7.27039	28.57951	26.26969	7.24088	4.04132	4.82303	5.90043	24.62193	21.82324	20.89180
17620	6.28255	2.17342	3.89594	22.35278	10.33432	16.35223	10.98111	9.95197	8.88548	22.41471	18.67674	18.51958	6.77521	3.71068	4.82511	24.55597	31.76578	7.68893
17780	2.06711	2.15604	2.52315	21.61393	17.28247	32.22760	8.06676	5.19784	6.50597	32.94878	25.54704	21.73797	8.38042	5.92939	4.39620	17.35349	22.34524	24.65409
17950	5.65090	4.05927	4.24626	25.38061	22.68634	15.75309	10.23904	5.01278	7.15523	11.29838	13.40133	10.10354	4.88746	4.52153	6.41036	26.33947	14.34825	8.90187
18110	4.30089	3.72317	2.96719	12.83165	15.52551	16.92564	11.26800	7.75990	5.79789	9.70099	10.15240	10.00441	3.85663	3.73536	3.85321	26.16059	25.16736	21.91205	22.11	6.1	0.00	7.39	0.01281	0.01293	0.01696	0.00779	0.00580	0.00636	0.00470	0.01271	0.01696	0.00677	0.00686	0.00902	0.01496	0.01102	0.01203	0.00218	0.00617	0.00869
18270	3.36419	3.27865	4.00706	17.64932	23.61991	26.65214	11.41382	9.10837	6.31894	29.01670	35.23862	34.33858	5.17617	7.29548	5.24217	25.39756	35.49081	49.70481
18440	6.11250	2.90522	5.75578	20.17787	44.10925	61.15461	10.74821	9.88959	4.35011	23.84645	27.96550	16.48817	3.01666	3.66879	4.39077	30.68760	38.30730	31.98003
18600	4.18835	5.36482	6.72244	30.00767	23.67633	17.07232	10.48687	8.07789	8.79223	13.72439	34.93138	53.50697	5.79280	10.00253	3.76002	45.57481	23.15018	19.17509
18770	2.52834	3.07247	4.27000	24.66573	21.38060	27.64294	6.85736	6.48435	3.98597	19.90648	13.12576	32.16643	4.53713	4.67729	4.38605	27.07314	42.30467	35.82156
18930	1.46888	3.73945	3.93154	22.88197	31.63959	23.33059	7.81943	6.86283	4.45997	18.78840	19.25864	16.99722	6.19814	7.17763	8.57204	46.88623	26.99618	30.38959
19090	3.67741	3.32803	7.23813	17.87197	19.56989	14.70540	10.28494	9.57081	5.91751	16.65007	28.31505	16.42220	4.98821	3.23042	3.26541	30.09759	18.93380	23.32382
19260	3.29672	3.20362	3.51435	25.03694	24.17675	16.94039	8.59548	4.78566	4.47607	31.65415	26.20018	28.09888	6.13182	5.45478	6.24317	29.91957	63.46633	23.62519
19420	4.27268	6.00176	5.56714	24.28476	27.90485	16.54402	12.34932	11.28421	6.46181	42.65188	28.81219	19.66177	5.42820	8.11013	6.03596	23.90475	37.67146	21.33374
19590	4.47714	3.88125	2.92577	26.44794	10.39595	15.77716	8.94077	7.16971	4.31634	18.93050	18.21364	23.15981	4.95462	6.30336	4.94403	41.01649	39.33965	32.24011
19750	7.17973	5.73292	6.47206	39.28056	21.87209	20.38042	13.33955	9.74717	4.34390	16.27994	14.36384	21.11028	9.58058	7.57842	7.56760	21.04132	17.00158	15.51083	22.05	6.1	0.00	7.34	0.01281	0.01292	0.01696	0.00779	0.00580	0.00636	0.00470	0.01271	0.01696	0.00677	0.00686	0.00902	0.01496	0.01102	0.01203	0.00218	0.00617	0.00869
19920	7.11516	4.10531	2.84256	19.50037	36.71322	35.22980	7.82993	6.33971	6.54064	43.98012	34.49448	19.69454	3.40758	5.89481	6.18562	26.27817	21.37147	17.72130
20080	3.55919	4.90233	4.88609	17.28856	13.58125	14.48792	10.80740	9.26193	4.89198	17.79060	13.12963	14.06476	7.13730	5.83026	2.80072	37.03418	19.39098	18.40859
20250	4.54790	3.80955	2.51342	34.74417	23.01736	18.53247	6.93525	6.71733	7.04613	21.94608	19.19901	14.92799	5.06165	7.55449	4.34445	33.80864	18.77153	21.33785
20410	5.91474	6.77444	5.86352	38.35535	34.08587	36.75770	11.57442	8.26698	10.64727	22.56038	25.17721	52.65265	11.48575	8.53565	8.98953	83.07679	71.55913	36.89269
20580	5.80269	5.25693	6.64449	41.08438	16.33489	23.04004	8.16052	5.55514	10.38334	36.89214	18.28878	25.71384	5.85656	8.26315	8.40798	44.77392	40.62152	37.28285
20740	6.60565	7.13169	5.89904	30.57369	30.64271	16.58097	11.62899	9.19786	7.86183	22.27287	18.36315	11.86483	7.41820	5.76995	10.16600	28.57421	15.90475	34.74177
20910	8.30187	7.62782	6.09496	37.97322	30.24410	37.32117	10.64850	7.35319	6.02135	26.42122	23.62041	17.27603	4.50720	5.02681	6.19683	26.66793	31.34730	19.83177
21070	6.39478	6.18797	4.26786	26.24425	11.83342	9.35744	7.21560	5.36915	2.65728	15.16526	22.26803	20.51359	7.05786	5.60590	6.20230	20.63100	24.41717	15.13487
21240	5.27993	5.80804	5.14472	37.10918	28.46610	19.06946	10.94315	9.14373	6.13346	19.08115	20.23282	25.52062	6.70084	6.37566	6.84751	21.73985	24.08943	14.75687
21400	5.11643	4.92143	4.26251	30.84441	21.18497	16.26730	7.60483	8.50978	4.14648	20.35366	13.74873	15.82975	3.87605	4.49201	5.82164	22.39877	15.31256	21.66040	22.05	6.1	0.00	7.32	0.01281	0.01292	0.01695	0.00779	0.00580	0.00636	0.00470	0.01271	0.01696	0.00677	0.00686	0.00902	0.01496	0.01102	0.01203	0.00218	0.00618	0.00869
21570	2.06481	1.68564	1.35828	18.90303	32.67220	31.03820	7.90547	6.90845	4.91952	23.33152	20.09457	17.97660	2.38686	5.71800	4.22266	15.31407	24.84558	19.30041
21730	3.38005	3.09687	2.21908	26.01705	16.11323	21.57752	8.18722	7.38865	5.31289	20.39443	27.37866	16.62395	4.52492	4.58897	5.64433	14.74169	31.63683	23.32808
21900	5.63259	6.01925	5.37806	27.29109	26.79616	26.07976	11.15040	9.31954	5.93092	27.59768	20.97467	43.39492	7.30950	4.45639	3.46669	27.92507	38.26349	45.64083
22060	2.08264	2.90106	4.77722	47.61337	41.18929	22.50891	7.56577	6.81840	5.58038	19.29414	30.39115	24.19203	7.70018	5.29791	6.31406	26.21810	15.85134	29.19442
22230	8.26016	4.58062	6.18493	21.51438	17.70659	20.56622	11.59421	11.30915	8.33752	16.89687	10.40401	14.78577	9.61033	10.22044	7.06159	33.86841	37.91578	30.60999
22390	6.74398	5.10926	9.73363	28.29470	28.47150	59.87656	10.73573	11.81886	6.97629	34.51603	17.11071	19.54469	7.79511	6.28435	7.28130	18.80238	29.44034	38.98552
22560	3.04162	2.87836	7.04498	48.29208	19.59745	15.82743	11.40050	8.34680	6.22786	26.82890	13.74533	11.75906	7.43913	6.89705	5.57707	35.84214	29.99060	29.76554
22720	3.40479	2.49698	2.80695	37.77067	31.50823	24.13215	10.28422	5.97224	4.05489	39.32677	15.79963	14.23308	3.81978	6.32510	5.82983	27.58984	27.81181	36.41933
22890	1.57054	3.57523	4.92460	38.76267	21.98076	18.47248	9.85559	7.28456	3.11034	17.06607	30.68727	23.79454	3.50326	2.94341	4.09060	23.73694	41.27222	38.37434
23050	4.74352	3.27389	3.31518	25.81406	27.82024	17.15834	8.70043	5.88674	4.07530	31.27107	14.81847	13.77614	3.80795	3.57716	4.20927	16.80347	31.98992	25.54869	22.05	6.1	0.00	7.35	0.01281	0.01293	0.01695	0.00779	0.00580	0.00636	0.00470	0.01271	0.01696	0.00677	0.00686	0.00902	0.01496	0.01102	0.01203	0.00218	0.00618	0.00869
23220	3.33837	4.12227	2.22009	17.27378	17.26060	19.90403	6.95400	5.79401	7.48975	26.64399	21.97610	21.04946	4.67116	5.51541	4.29303	36.02828	31.42007	26.95001
23380	3.01134	2.49275	2.09428	29.16296	17.46749	24.10531	7.60349	6.87763	6.25536	16.48053	17.89496	19.29016	6.16622	6.03805	6.06439	33.47408	23.56257	24.99227
23550	4.74701	4.65715	3.63261	13.87652	15.00558	11.51889	9.67720	5.31760	4.06508	23.17426	29.18459	33.00781	7.01268	5.12528	4.99548	24.73339	40.13363	33.77440
23710	4.89636	3.88569	5.53807	26.15679	39.57519	30.14909	7.37877	6.13049	4.91542	18.14910	14.45324	33.62292	5.59431	5.80374	8.19542	40.33569	30.96670	26.68237
23880	2.62390	3.18100	2.75779	28.58375	20.72611	32.65970	8.45349	8.89910	7.05142	44.48526	27.22281	31.87736	4.68078	3.09002	5.67254	39.89612	26.69772	25.89255
24040	5.34863	5.28453	3.84189	27.08180	24.62745	34.53360	8.12674	7.23839	4.61261	40.40082	32.05588	27.13715	4.55318	8.21159	5.92853	18.59009	35.76471	18.31237
24200	6.00967	5.27715	4.88831	23.07148	22.13817	24.27368	11.30940	6.61630	3.72975	15.59560	17.92379	15.61427	5.83837	4.26315	5.12076	25.71329	15.27428	20.00800
24370	3.20232	2.73285	3.45785	25.82116	19.05081	30.48048	6.80456	6.98947	4.72684	18.52828	21.72073	18.32348	3.85987	3.73284	6.68447	17.53255	14.38478	25.14108
24530	3.66682	3.51251	1.66771	14.78170	13.05917	17.58108	8.38689	5.60082	4.39292	16.72575	27.38169	34.18099	3.33322	5.11387	3.96550	31.22609	23.94535	49.58914
24700	3.35819	2.07777	4.05591	30.91698	18.86203	18.79385	7.13325	4.76151	5.63393	31.09640	17.70437	23.13316	4.58742	4.70378	4.45507	26.12829	18.93343	24.70617	22.05	6.1	0.00	6.51	0.01281	0.01292	0.01695	0.00779	0.00580	0.00636	0.00470	0.01271	0.01696	0.00677	0.00686	0.00902	0.01496	0.01102	0.01203	0.00218	0.00618	0.00869
24860	1.26550	2.13743	4.39007	20.88274	14.13536	30.29051	6.86026	4.61737	7.59809	9.01495	24.92241	27.34549	4.88777	5.51165	3.82674	30.81743	41.01383	20.35993
25030	2.05629	3.26537	2.97516	15.52017	19.60394	40.98640	6.05917	5.40600	5.17997	23.92966	29.32208	20.68873	5.68601	5.65695	4.02146	15.04178	28.46852	15.57989
25190	1.53002	2.10474	3.09283	32.92403	20.46150	26.94736	9.66973	7.21324	6.64733	32.58597	36.31164	25.69545	4.66851	7.30719	5.43924	29.29793	13.72253	9.75458
25360	7.41603	5.20654	3.91597	23.30442	24.39508	18.13752	7.56191	4.80593	4.79444	12.28594	14.24140	18.92863	3.49264	3.38785	2.92314	12.91518	16.26076	17.96482
25520	2.72272	5.32665	3.38428	32.53329	22.58249	19.61596	11.14469	8.69965	7.91468	16.53722	24.12727	35.79071	8.07229	4.01792	5.93128	61.12194	37.26278	33.78816
25690	4.24271	6.08832	6.32429	21.90680	27.43199	29.22818	12.11835	9.10917	6.65365	24.34362	53.77335	24.38012	5.14053	5.42163	5.76596	21.33096	35.32623	30.28981
25850	6.21113	5.54476	5.56527	48.03062	43.24596	21.30150	15.27771	13.03651	8.39515	28.11935	23.41139	33.80033	9.75187	10.32611	5.21677	29.97143	21.77079	19.67464
26020	5.24782	5.16164	3.02847	42.59024	25.50283	18.19129	12.24551	5.47174	5.73069	19.28755	21.83942	18.64818	7.49320	4.95249	7.17338	34.20808	35.01756	26.82521
26180	4.45334	6.15071	4.05419	28.86572	34.06854	27.28480	6.95107	6.59095	6.87805	15.89178	26.68646	21.58905	5.24268	4.96577	4.18340	28.15733	20.13557	15.71130
26350	3.49154	4.93314	5.36544	14.86062	12.22138	14.56378	10.67621	6.68283	3.92112	10.32446	27.29758	18.34072	4.33483	4.50668	3.55454	43.70490	20.08587	66.94800	22.11	6.1	0.00	7.39	0.01281	0.01293	0.01695	0.00779	0.00580	0.00636	0.00470	0.01271	0.01696	0.00677	0.00686	0.00902	0.01496	0.01102	0.01203	0.00218	0.00618	0.00869
26510	2.78405	2.42521	4.03732	18.33514	28.44913	36.19172	10.19179	7.05070	7.43566	33.84737	30.23204	26.01814	6.50853	6.79924	4.91942	32.86559	20.94603	24.77422
26680	3.91572	2.70965	3.19288	24.64326	17.12805	28.98975	9.90742	9.43901	5.04304	11.65703	17.07789	24.82125	4.43454	3.01548	2.53162	28.18693	12.29728	15.25933
26840	2.00768	3.05275	2.62244	15.87451	6.88160	16.24436	9.60758	7.91950	3.27718	14.55906	20.98332	20.19417	3.30234	2.85643	3.69505	54.54439	47.93712	36.73281
27010	1.70900	4.14838	7.86422	28.79684	30.49175	23.73082	11.87352	12.35871	9.76407	38.86994	29.26637	22.96205	9.45459	8.58261	7.45930	30.57974	12.98169	31.70015
27170	8.43335	4.86415	3.83460	19.83114	20.48496	24.17302	10.72535	10.02079	8.95469	41.06524	19.47679	20.66882	7.96457	5.04469	4.79382	19.85406	17.91824	21.89626
27340	5.80250	6.16682	4.18790	30.54614	34.94923	40.83514	11.81455	6.55117	4.62150	44.24581	36.35889	42.81188	5.28993	5.23108	5.50316	38.64936	26.72264	23.50102
27500	6.67350	9.23084	8.07951	42.72647	62.22873	23.39180	11.77256	7.87514	5.18043	20.12830	29.25247	27.14252	4.48475	5.30395	3.96749	37.08853	22.99498	39.86219
27670	4.17589	4.79671	3.92896	18.54782	21.65195	23.33593	10.52119	7.27086	4.64877	16.79089	18.25651	24.88668	3.19068	4.68318	4.93739	29.32736	19.47357	26.75045
27830	3.59288	4.25492	4.63561	20.30654	22.68283	9.05606	6.77084	3.98748	1.93772	20.63261	22.53346	24.76214	1.43194	1.49519	1.68563	23.24389	8.20270	17.18580
28000	1.68804	3.18241	3.73705	47.43523	34.81165	25.45039	10.23454	10.31341	5.57811	18.07960	37.92471	26.74262	5.42177	2.73581	5.18606	31.61364	19.83615	11.13996	22.11	6.0	0.00	7.35	0.01281	0.01292	0.01695	0.00779	0.00580	0.00636	0.00470	0.01271	0.01696	0.00677	0.00686	0.00902	0.01496	0.01102	0.01203	0.00218	0.00618	0.00869
28160	3.51921	5.31164	4.56757	9.85165	21.13003	21.05891	7.20732	6.76558	7.76082	16.37350	21.50642	9.13632	3.36585	2.85820	2.28015	13.79136	41.52369	34.65234
28330	1.93230	2.40596	4.02339	8.69878	13.45238	15.10599	9.85305	7.39040	4.48323	13.93446	15.17890	34.88685	5.75464	5.15336	4.91762	46.91641	23.32709	34.39091
28490	3.59604	3.69546	4.21665	32.28925	47.85580	51.68393	10.39083	8.73119	4.46740	23.93056	23.00807	51.59456	5.23649	7.46810	6.58990	28.92380	29.85959	23.85536
28660	3.31893	4.56586	5.39977	14.89262	18.97395	21.13937	12.37458	6.76499	4.72697	38.40900	28.11610	13.19734	6.25611	3.61008	4.23941	9.95977	20.52182	17.98088
28820	3.49248	3.12346	4.05641	23.59984	27.56969	39.91924	7.93519	7.19119	6.48359	9.69672	14.23651	14.38166	6.24507	5.84447	5.17936	28.59988	40.66611	35.28469
28990	2.99009	6.89181	6.12918	24.98222	29.07391	47.65897	11.29820	7.88306	6.57638	35.25191	61.32161	18.51342	7.02262	9.94735	9.70504	23.19531	26.99994	33.77194
29150	8.20139	7.83637	6.13631	33.31898	34.95539	39.12549	6.67252	9.59856	4.74547	19.59223	23.43145	24.04562	7.42726	5.55624	8.20873	31.61452	43.26456	21.01564
29320	8.78412	3.49871	6.51290	31.12293	37.09113	40.50485	9.80192	4.92896	6.72829	39.28726	31.34366	35.37069	6.59247	5.64645	4.59751	52.19018	29.30022	36.44861
29480	5.54724	7.17807	6.78710	26.44029	33.90650	13.72205	9.80550	9.31614	7.80736	31.23519	27.28625	22.61255	6.19167	4.81322	5.15861	27.77872	21.40536	34.39426
29650	4.59071	4.82357	4.34392	28.34049	23.59218	42.42483	9.76253	7.00061	4.91436	19.38712	26.46948	22.23094	5.73950	5.52468	4.77534	14.87781	27.11674	16.30071	22.05	6.1	0.00	7.38	0.01281	0.01292	0.01695	0.00779	0.00580	0.00636	0.00470	0.01271	0.01696	0.00677	0.00686	0.00902	0.01496	0.01102	0.01203	0.00218	0.00618	0.00869
29810	6.90412	5.74895	4.70736	18.05860	17.25145	26.48569	8.75530	7.91795	6.16523	23.68588	31.51172	27.72408	4.64319	4.67157	4.04593	12.21839	17.30959	9.16162
29980	4.46548	4.81860	2.25786	10.59557	19.47304	15.46226	10.19892	7.92206	6.51758	23.95911	24.76895	27.20481	3.30555	3.90501	2.28413	33.92753	17.04165	18.67137
30140	3.98112	5.53987	4.16114	17.53301	29.75502	28.17615	11.38633	8.02263	8.47173	23.60174	14.70265	26.41272	4.58887	6.84997	7.87820	31.31850	40.05773	29.06171
30310	5.43491	5.54762	6.44101	15.08655	19.49833	26.27907	10.50026	7.63984	7.06570	32.71283	21.66615	28.91624	4.48603	6.30507	7.76189	49.82621	47.51223	59.54055
30470	6.13425	6.95504	5.29154	22.57491	31.78510	23.66926	12.98052	7.31207	6.74543	37.19412	28.77485	33.44290	6.26060	7.07954	5.10646	33.01762	16.90835	25.39755
30640	4.93367	5.61981	2.55900	14.13701	23.03586	33.22357	7.83251	9.17520	8.05666	20.15987	26.52733	35.52927	7.77370	7.82950	10.38944	50.07981	52.61498	35.31199
30800	6.15771	4.18898	2.84079	26.08140	22.28290	24.55827	11.41258	9.36018	4.84409	25.71576	20.26172	20.87863	2.53737	3.41839	4.19440	31.85884	14.49430	26.47152
30960	2.16134	4.28167	5.08937	8.23507	22.81583	31.36932	9.97952	4.15847	4.33440	38.86419	29.39313	33.14367	4.68414	5.24218	4.88039	34.36786	35.58138	29.62176
31130	4.18159	5.87017	4.27519	25.32545	22.64735	20.16235	7.69153	4.72499	5.42670	15.91417	19.81621	9.98050	3.69748	2.76124	2.62270	21.40926	15.86817	12.50115
31290	3.94483	5.68453	2.30399	20.20974	12.78205	26.71440	10.91295	7.16535	5.23196	22.85992	30.51978	33.63492	8.94484	10.10456	6.57845	21.91158	16.47248	22.66445	22.05	6.0	0.00	7.39	0.01280	0.01292	0.01695	0.00779	0.00580	0.00636	0.00470	0.01271	0.01695	0.00677	0.00686	0.00902	0.01496	0.01102	0.01203	0.00218	0.00618	0.00869
31460	9.30478	5.81991	7.53006	30.29083	27.73589	33.99070	9.98305	10.11568	7.88788	26.86676	24.23082	20.87521	4.29115	5.40740	5.26193	33.48681	44.78455	32.55491
31620	5.35684	3.23282	2.85968	21.12406	27.61752	30.85811	10.64722	5.53809	3.01980	36.19297	40.71228	27.08489	2.87358	3.50027	7.02806	24.75207	24.50015	28.28830
31780	3.01410	3.43059	3.41679	62.66898	28.85651	30.36540	12.42651	11.05629	9.16292	33.49984	40.18560	40.98705	11.26318	9.97018	8.06045	36.03813	23.50992	27.96856
31950	6.33922	6.75905	6.31907	26.61164	22.44113	16.54026	8.93829	7.34850	6.32237	26.54552	21.78197	38.02750	5.78393	7.56481	6.87720	23.99484	18.17763	58.62380
32110	5.68253	5.80268	5.27016	26.77471	17.13950	17.97663	11.23288	7.28341	8.33844	24.78515	44.77855	24.25915	6.28904	5.39217	2.50845	33.36219	29.65953	15.94126
32280	4.02080	2.05823	1.83628	26.52262	29.52189	23.93852	7.92812	7.43967	5.42218	21.70416	12.95572	29.41838	4.76010	3.92241	3.83574	26.53305	14.59918	26.03872
32440	3.39462	4.11022	1.80797	14.37038	23.34588	21.57273	6.70542	4.30581	2.65130	26.55589	20.48341	14.73861	3.11250	3.79793	3.02648	25.52477	24.75870	28.49175
32610	3.97016	5.80307	4.04534	23.05396	32.16006	32.94760	8.01758	5.55765	6.84580	35.72941	25.08562	23.33834	6.18806	5.58988	5.11438	21.96415	23.19864	25.15923
32770	3.44628	3.43039	2.31850	18.13709	17.93003	25.46526	9.08433	6.36532	4.79122	29.27042	30.08840	46.92831	4.67906	4.30740	4.29885	45.41382	27.55272	14.37860
32940	5.48805	2.79917	2.60565	27.20057	34.38888	22.72952	7.07277	4.12203	5.58762	15.34427	9.69848	9.56982	4.19204	5.19521	4.62106	19.27137	14.18728	6.99070	22.11	6.1	0.00	6.56	0.01281	0.01293	0.01695	0.00779	0.00580	0.00636	0.00470	0.01271	0.01695	0.00677	0.00686	0.00902	0.01496	0.01102	0.01203	0.00218	0.00618	0.00869
33100	3.01344	3.47480	3.66950	19.03859	13.77944	14.02023	6.40100	4.42680	5.69252	29.88447	13.39780	14.56406	4.08962	3.39213	3.21847	29.21988	32.82707	27.52870
33270	4.52463	1.56728	3.06508	19.26362	14.71179	26.93764	8.45612	6.22656	5.75705	28.52695	13.86051	29.39864	2.93273	5.47019	4.43314	25.19141	15.79183	13.02912
33430	3.29045	3.65239	2.73746	37.00660	33.28455	33.30409	7.44812	5.46164	3.21647	25.34727	19.33915	15.29214	4.65048	6.29044	3.95455	39.62310	40.64814	63.93058
33600	4.70822	4.29653	4.26226	29.57000	24.77531	16.81751	13.15072	12.04357	9.90801	48.42609	26.70126	44.38104	7.03581	6.31478	6.16802	25.95299	45.37998	44.96179
33760	3.07673	2.10345	2.66642	42.07907	50.24048	44.73612	6.99602	7.72571	6.47103	31.87031	19.92086	23.34531	9.73255	4.66428	4.10763	30.82008	31.19227	27.25348
33930	3.90873	2.89039	4.91822	24.93659	32.17117	20.85724	9.59646	6.23938	2.71222	19.33665	15.13814	14.93464	2.62123	2.02548	2.42445	12.27850	16.88604	21.81894
34090	2.38179	3.28620	2.09081	19.02071	23.81561	12.91619	7.96641	6.48441	4.95940	13.30433	36.22531	18.99979	4.90709	5.65706	6.62880	33.20125	23.94326	26.01213
34260	2.68383	2.52595	2.75805	21.75642	16.49029	16.25915	10.38157	10.77727	5.26831	23.27052	15.57972	19.74830	3.79885	4.42794	3.51672	17.49840	37.42997	27.38468
34420	3.84956	2.46359	3.37727	30.12175	28.45577	35.78541	8.13423	6.91527	8.07244	21.26748	24.80401	34.12715	5.04131	6.31934	5.85198	34.59252	45.00950	25.92729
34590	10.03396	9.35913	8.08284	18.48696	32.03630	26.68054	8.96174	8.41411	7.13508	37.92471	28.88503	42.76058	6.87191	6.06464	4.77390	39.24828	52.17753	35.49150	22.18	6.2	0.00	7.37	0.01280	0.01293	0.01695	0.00779	0.00580	0.00636	0.00470	0.01271	0.01695	0.00677	0.00686	0.00902	0.01496	0.01102	0.01203	0.00218	0.00617	0.00869
34750	6.54634	4.60507	3.31686	20.06669	28.50946	27.13284	8.27199	7.10962	6.09341	21.18659	17.29676	19.11664	3.67767	2.98919	3.31475	7.73228	19.60209	15.91501
34920	3.45374	3.12447	3.07900	18.43709	24.90488	26.68349	8.42758	5.18515	6.44110	21.62245	25.87112	35.87858	6.22277	7.57203	3.94100	27.76579	35.29803	26.59024
35080	2.48378	2.42270	5.78235	35.75033	21.95384	23.82394	8.83946	5.33209	6.63345	16.13272	19.20376	24.99522	3.95932	4.44349	2.43159	28.83908	47.88384	60.99169
35250	2.50341	4.07471	2.92532	23.25548	41.05790	29.34185	11.29453	9.73737	5.30548	17.69528	25.47344	28.00167	5.86626	4.77165	4.46007	17.68229	30.46846	16.55003
35410	3.28282	2.86982	2.86729	21.86654	20.26724	24.18885	7.48129	4.84351	3.14952	29.91646	27.70874	16.50209	4.26183	4.65198	3.43863	44.38053	39.83814	27.23108
35570	3.45883	5.15413	4.12576	39.17276	19.21740	26.08440	10.55378	9.98225	5.67715	21.15274	25.52937	26.43234	4.58793	3.89953	3.75017	30.02502	28.25491	18.46125
35740	2.43344	2.18692	3.83331	21.41430	29.30431	26.14780	10.34782	12.08282	8.35295	17.85497	37.84528	21.54715	7.41931	8.20278	6.51821	25.12762	23.83906	44.79729
35900	4.92064	3.64909	3.89013	28.82046	27.74125	30.24637	8.16251	10.47627	5.70830	27.39593	22.38005	25.15506	6.69155	4.04471	5.31493	20.14515	21.86307	17.76487
36070	3.14009	3.35552	4.48792	27.29487	14.84410	21.40571	8.86290	7.46414	5.51441	22.40137	19.65324	28.67323	3.55293	6.63256	5.78638	36.60399	37.15994	32.75717
36230	5.51816	5.02145	3.94558	30.27362	40.97669	23.97350	9.99677	6.27892	5.37405	27.95473	24.58241	25.90451	4.85600	3.88822	3.34978	19.22635	18.09249	15.03654	22.11	6.1	0.00	7.36	0.01280	0.01292	0.01695	0.00779	0.00580	0.00636	0.00470	0.01271	0.01695	0.00677	0.00686	0.00902	0.01496	0.01102	0.01203	0.00218	0.00617	0.00869
36400	3.74659	3.51274	3.67526	16.63920	14.75603	17.04315	8.28421	6.79918	6.99971	26.90852	20.75304	19.27877	6.20479	5.46085	3.26095	14.76247	18.59805	25.67172
36560	2.32394	2.90462	2.39413	19.73487	31.05373	21.32870	6.45334	6.82140	7.32240	14.05199	23.39884	21.77986	5.53952	3.72508	6.11017	27.06688	16.72214	24.72104
36730	6.83094	4.61301	4.54601	18.47527	30.23188	41.55059	9.39685	7.65629	4.86272	20.40373	13.18082	12.19821	5.53068	5.29058	3.06065	16.79153	20.61814	26.24465
36890	3.56337	4.70629	3.70637	22.71356	16.21074	9.89588	10.25278	8.56479	5.25984	14.75074	20.53393	38.27992	4.94063	4.30645	2.09964	21.67272	24.10643	28.00170
37060	1.39132	1.89164	1.63029	42.42705	21.98578	19.54603	7.64897	3.72665	4.29560	23.46961	21.81888	35.78976	5.45803	5.46584	8.08301	28.17696	31.11543	32.62352
37220	6.31371	4.91591	1.86601	28.67940	22.47331	13.47554	8.99291	5.22756	5.66328	10.98178	13.14053	14.54112	5.30824	4.35412	4.69581	24.82314	21.94529	31.87227
37380	8.79188	4.54315	5.99376	21.53648	16.69408	24.37114	9.37667	9.42102	7.35191	49.60700	49.17838	31.36963	2.59784	4.29469	6.99922	27.48620	32.53429	30.35213
37550	6.05224	7.49845	3.50582	30.70003	45.48048	23.57411	8.12116	9.93345	4.68492	28.69010	16.83928	30.87191	5.52552	6.01887	4.54242	42.67479	46.58715	30.74849
37710	2.33244	4.09962	3.48430	18.25954	29.39115	33.95665	7.93349	8.75267	6.17186	48.51125	20.79786	33.13167	5.56074	8.15938	8.07490	36.97526	39.00041	24.85410
37880	6.38035	4.03887	3.77041	12.13495	32.87109	40.31236	11.04691	6.90372	6.27484	21.56004	18.89481	30.62973	3.52007	6.17525	4.10717	27.83203	23.85122	31.30184	22.11	6.0	0.00	7.34	0.01280	0.01293	0.01695	0.00779	0.00580	0.00636	0.00470	0.01271	0.01695	0.00677	0.00686	0.00901	0.01496	0.01102	0.01203	0.00218	0.00618	0.00869
38040	5.02672	3.64299	4.55534	30.41241	20.46364	17.06456	8.90862	7.16126	5.39481	23.13936	17.30489	23.87482	5.02030	2.41088	2.18369	9.86435	14.07277	17.25646
38210	2.68745	2.65045	1.56708	19.63240	28.85091	21.21769	5.95247	4.20939	3.06250	17.74811	11.02168	16.09779	4.65684	5.42293	4.68277	26.64247	11.20451	20.97971
38370	7.94984	6.50975	1.89781	16.35851	13.74672	19.55708	8.80716	5.97080	4.24872	19.10292	11.26730	12.76815	4.32289	5.19805	2.32848	11.02730	7.84317	18.42569
38530	2.18497	4.74258	2.45568	15.81505	20.13205	19.18560	9.25075	5.52237	3.16052	17.56503	21.44470	30.79382	6.51802	4.74106	3.41316	31.06932	31.58582	45.92888
38700	3.02681	3.91237	4.73610	28.44956	17.27854	20.16432	7.52678	7.09033	7.24537	26.79959	33.45898	12.20871	4.09577	4.42522	3.52558	37.20300	17.31010	20.51963
38860	3.08509	2.64446	3.95828	18.40063	17.73335	23.69308	8.35303	6.44975	7.46999	15.35976	12.58859	23.85784	3.66374	2.45829	2.22682	22.55588	23.52903	34.33315
39030	3.20941	2.15365	1.26939	21.62713	11.08125	21.81004	6.93400	5.52468	5.66748	15.27772	24.62373	22.49132	4.49057	7.56807	4.10462	8.99282	15.90049	23.66091
39190	4.59232	4.31825	6.82270	17.46138	13.82523	19.24053	12.17521	8.99472	6.08516	17.75295	11.20698	16.88159	3.12122	2.40981	3.12092	27.52873	13.08201	19.88535
39360	2.04289	1.41719	2.15381	18.78793	24.38552	18.28232	6.72895	7.53869	8.28397	7.43852	20.93546	16.10542	4.96224	3.29316	5.49631	29.76661	23.38297	20.18944
39520	3.58184	3.46889	2.60716	9.60061	17.19225	21.07294	6.57433	3.88396	2.21855	13.36594	9.77488	33.77223	2.25433	1.67394	1.85438	25.67542	29.42640	17.56079	22.11	6.1	0.00	7.33	0.01280	0.01293	0.01695	0.00779	0.00580	0.00636	0.00470	0.01271	0.01695	0.00677	0.00686	0.00902	0.01496	0.01102	0.01203	0.00218	0.00618	0.00869
39690	3.83867	2.46540	3.33918	9.59783	12.90072	14.33150	7.63156	6.42830	3.09350	13.73532	10.30554	13.17906	3.19393	2.04208	1.93113	25.66229	17.81340	13.33004
39850	4.22858	3.19566	4.95692	24.46132	23.86205	13.22751	7.78928	6.18297	3.58239	22.94475	19.64174	21.89124	3.86542	2.99077	3.48663	12.05065	13.48783	19.52825
40020	2.39253	1.75445	2.57564	8.32966	9.50805	11.86420	7.39749	6.49559	5.09762	12.24098	5.36010	10.16762	4.07669	6.10458	3.77307	17.27377	22.39719	20.47602
40180	2.28648	2.18657	2.51432	13.72146	30.03965	19.78512	8.80974	8.46466	5.34250	14.10082	25.80266	13.85132	4.54816	3.05480	5.45030	32.29114	33.64048	30.24987
40350	5.56438	4.42460	2.34321	9.15420	28.59749	24.45225	6.78767	7.19374	3.77421	27.73070	16.29450	17.46394	3.14469	6.03633	4.30494	25.31168	14.25249	16.90832
40510	1.67553	4.26729	4.28594	14.40261	16.20715	16.71495	8.29517	8.88747	3.66333	14.46534	29.24958	19.35093	2.86395	2.07751	1.33725	33.72273	24.20613	22.30010
40680	1.64588	2.79271	2.24259	19.11039	49.43438	26.72270	10.43277	7.76135	6.03156	12.08925	28.32272	19.70295	3.84170	2.82575	4.65912	21.99623	47.82560	19.15907
40840	4.30825	3.64025	5.81135	16.75098	19.12246	11.65988	11.07902	8.95336	3.71658	19.48581	11.50174	26.29917	4.78971	3.50533	5.25455	44.50948	25.30974	23.18505
41000	5.26735	6.47435	4.52118	19.59971	15.15894	13.76134	6.48034	3.73628	4.37691	15.33949	12.22645	22.82283	2.99407	3.17340	2.21223	25.44112	21.51673	10.77634
41170	3.32874	4.73865	3.88135	27.39204	27.25043	17.63661	6.58462	4.00358	4.29570	14.30542	15.29385	12.31288	5.36237	4.09839	4.02754	40.91141	11.57278	21.91434	22.11	6.2	0.00	7.31	0.01280	0.01293	0.01695	0.00779	0.00580	0.00636	0.00470	0.01271	0.01695	0.00677	0.00686	0.00902	0.01496	0.01102	0.01203	0.00218	0.00618	0.00869
41330	4.16527	2.79946	2.71698	21.63426	24.52465	34.43310	5.85028	8.33620	6.44601	50.97550	48.84870	25.99938	7.06216	5.79019	6.14880	61.46740	22.66738	46.41337
41490	4.09047	2.85218	3.69150	25.72682	16.99475	20.94781	10.16735	6.10448	2.84908	27.01620	17.33572	21.21085	4.07187	4.47479	2.94759	22.67572	27.16006	30.18380
41660	2.15555	2.96928	2.64426	16.43177	23.48336	28.35851	6.82052	4.59031	4.83558	20.31439	10.87780	9.49761	2.39168	3.49545	4.06516	19.58726	14.53215	17.14168
41820	2.05231	1.90406	1.43093	8.90442	19.99681	7.69450	8.56196	4.51646	6.37681	32.81840	32.32848	19.04607	6.80468	7.12389	5.04846	19.86386	38.03068	30.60013
41990	2.74094	4.39492	6.52749	28.74235	32.33665	30.17630	8.13151	7.09939	8.06014	31.09089	38.01459	39.98184	7.43593	6.20248	4.36025	56.71081	39.58597	32.70503
42150	4.74996	5.85635	4.84624	34.10888	23.54600	22.40590	10.80518	9.21623	7.08930	27.35379	27.84087	20.31267	7.88835	9.55709	8.10359	31.66131	25.68570	43.31299
42320	2.55685	4.72287	4.48160	28.22294	21.34929	43.66888	6.92534	4.79821	4.19230	24.96434	12.34412	13.00752	1.98778	3.64549	6.79823	17.56393	15.93792	25.51895
42480	3.04874	3.85660	4.42253	31.42923	22.28543	19.20128	6.50661	5.51245	3.72441	22.66947	30.71989	7.01941	2.73862	2.26752	2.13583	23.56658	11.88216	22.38524
42650	2.60636	2.27327	2.16174	14.55229	20.36948	13.33538	10.79759	6.95845	5.66208	45.86724	33.00024	35.89315	4.73036	7.91133	5.96447	46.18335	25.66912	49.57171
42810	5.98168	5.61722	6.48760	53.71675	46.01313	34.30936	10.49849	9.15884	6.56642	21.05293	38.74974	35.89779	5.25833	4.95835	2.74307	23.41279	39.77448	41.10835	22.18	6.2	0.00	7.47	0.01280	0.01293	0.01695	0.00779	0.00580	0.00636	0.00470	0.01271	0.01695	0.00677	0.00686	0.00902	0.01496	0.01102	0.01203	0.00218	0.00617	0.00869
42970	6.74014	5.93505	7.37454	34.99527	38.01510	23.02731	10.50952	6.91744	3.91072	18.35777	34.33706	29.01219	8.39907	6.96423	5.33721	20.03294	24.06332	16.72276
43140	3.78769	2.83817	4.07854	25.46012	32.64277	35.21195	7.98387	5.03846	5.97729	23.18591	21.72717	25.29690	4.22332	5.03333	3.42107	22.32264	31.03736	16.68426
43310	2.41016	4.05816	1.86287	23.30801	29.82479	13.99973	8.22017	5.30132	5.17551	17.57431	8.37446	19.38490	3.65416	3.42672	4.80846	38.49989	22.59981	26.28191
43470	2.35621	3.11292	3.78305	31.59405	33.31954	22.06799	8.07384	10.51288	9.58252	33.51347	28.19058	17.49354	7.17236	7.42452	4.45505	36.35733	18.47608	13.83837
43640	2.60100	2.60008	2.46665	16.71090	25.29412	28.43295	9.74065	7.75617	3.40765	15.01007	19.85759	30.72118	7.79118	6.95198	3.90289	32.17548	29.64915	18.63755
43800	2.68921	4.26201	4.96139	20.35897	19.37381	27.20463	11.07009	10.62968	8.01784	13.81818	11.92928	25.15041	5.40117	9.20831	8.80906	49.55825	81.47480	39.79286
43970	4.95642	5.83903	6.06535	31.54448	31.95140	33.23755	7.27880	6.14433	5.90565	14.29689	22.70709	33.12613	4.19458	4.50409	4.45104	18.58413	16.23371	18.57734
44130	3.93977	4.16204	2.86111	11.51060	14.07860	15.37182	9.20478	5.35944	3.43153	17.86862	22.03345	27.46182	3.47540	3.20184	4.68915	14.68442	28.26090	32.88512
44300	5.06606	2.40258	2.53278	28.22602	28.99433	36.65605	7.50044	8.44213	5.31052	35.36342	26.81742	31.53519	5.55578	4.63630	4.85914	26.99159	30.91948	18.31732
44460	3.99151	2.00282	3.63704	25.17421	26.50477	18.48716	11.02125	6.37339	5.64025	39.14177	28.63298	23.94241	3.13666	4.74097	4.41242	47.78841	25.59624	36.28818	22.24	6.2	0.00	7.39	0.01280	0.01292	0.01695	0.00779	0.00580	0.00636	0.00470	0.01271	0.01695	0.00677	0.00686	0.00901	0.01496	0.01102	0.01203	0.00218	0.00618	0.00869
44630	5.24018	4.13991	3.55342	31.32406	29.34906	22.59471	8.59334	4.60548	5.48166	26.11333	31.07215	27.87413	4.67715	5.05557	6.28156	35.70080	27.25103	30.26258
44790	6.87664	5.11069	4.48622	23.76244	20.69248	34.69969	9.78613	7.89731	4.32821	38.07078	33.89153	20.02202	3.44202	1.73111	3.52818	31.01703	18.52535	16.07451
44960	1.59056	1.64434	3.51452	44.22302	18.86958	8.53178	8.30665	4.57011	3.04765	22.20393	24.34462	20.20147	4.97234	2.41689	2.12323	15.45073	13.05103	11.50788
45120	4.29149	5.33143	2.62674	24.60486	42.87014	13.17506	13.87612	9.93048	9.43616	22.93058	26.16069	40.00903	5.91133	8.03769	5.43456	50.96296	34.84334	42.52267
45280	3.17993	1.27334	0.77981	19.68179	20.33328	11.28974	7.62698	5.73222	4.76868	17.60426	27.13147	35.62547	4.31995	4.24778	3.69595	18.04151	21.45458	24.56520
45450	2.94423	2.67888	5.43833	25.60141	20.05832	28.73039	8.69950	6.78720	6.68700	32.07659	23.99352	33.94059	5.02306	5.76742	7.85009	29.87452	45.34948	41.29219
45610	4.80051	5.76950	5.20241	32.23006	25.66435	20.48684	9.89079	8.42919	4.27767	25.59210	26.28684	22.68475	5.67274	3.36368	7.06772	32.96530	35.17283	41.58748
45770	3.88608	5.94789	3.48115	34.29925	43.96105	31.42575	10.03462	8.00087	6.32476	15.37817	17.16583	10.80981	7.30435	5.47562	5.20608	25.83941	17.57290	42.65632
45940	5.39778	3.25791	4.05080	14.39831	50.81375	22.02342	7.55917	4.94629	3.16286	35.67862	25.74189	13.99255	2.90132	2.98810	3.45481	29.04308	18.80488	24.73862
46100	2.61861	3.55346	1.54726	33.94748	32.26647	21.25485	8.73011	5.76653	5.10875	15.89474	10.20592	19.50010	3.55012	3.80302	4.36565	23.53635	25.73761	33.12226	22.18	6.2	0.00	7.28	0.01280	0.01292	0.01694	0.00779	0.00580	0.00636	0.00470	0.01271	0.01695	0.00677	0.00686	0.00901	0.01496	0.01102	0.01203	0.00218	0.00617	0.00869
46270	5.20161	3.34293	7.38709	33.48432	42.34947	25.07945	11.93302	10.30760	6.71609	22.27510	26.72484	38.52544	6.68233	5.58296	5.79951	17.40570	23.86099	18.76391
46430	2.73860	4.57333	4.69876	38.83685	54.23939	37.89267	8.64190	6.04628	2.86499	32.17769	45.87481	32.21113	4.43287	5.71301	2.82985	50.14650	29.51067	30.49340
46600	2.76181	4.74550	5.07872	49.64320	31.46314	26.80190	7.95294	5.86868	5.77885	8.50864	13.82694	12.51283	5.45819	5.01773	3.28609	25.32092	19.86177	19.11069
46760	7.28988	2.73921	3.46226	22.86208	22.14373	19.62181	7.22925	5.90348	4.32813	22.77008	21.15757	16.89078	4.34581	4.63542	3.64944	37.96754	20.88864	40.03115
46920	7.98960	4.82233	4.29073	39.57082	31.81324	33.57946	13.01496	12.17918	9.03268	39.52506	54.31581	52.17841	9.33754	9.32042	8.79268	21.29201	15.03052	27.23899
47090	6.82755	5.60771	7.77323	21.02135	11.40432	11.44132	9.90985	6.62003	5.00439	20.86547	16.98998	19.24351	3.93693	4.87358	2.60994	22.99456	19.18814	20.28550
47250	4.77319	5.05212	5.64601	28.42939	24.51647	9.19310	7.03354	5.60937	4.49403	26.26114	17.78049	23.70213	5.54811	4.43276	4.66375	14.73250	22.86850	19.05955
47420	6.28289	2.41389	6.47312	27.31013	18.16243	35.54906	9.37551	8.23062	8.37508	17.14604	21.71961	13.46089	8.92541	7.08882	4.46175	28.41294	27.27075	21.66395
47580	6.26077	5.56299	6.41114	25.41282	32.74440	18.74891	11.31545	9.75492	7.07984	16.29458	15.76206	10.07356	3.56966	2.69373	3.65167	19.18324	17.22904	10.04598
47750	4.46586	3.70924	3.94604	19.13983	21.41219	29.59119	9.81769	8.97202	7.79629	39.12772	25.17528	12.62812	5.55489	3.76266	5.57994	20.18589	20.35260	28.28336	22.18	6.1	0.00	7.36	0.01280	0.01292	0.01694	0.00779	0.00580	0.00636	0.00470	0.01271	0.01695	0.00676	0.00686	0.00901	0.01496	0.01102	0.01203	0.00218	0.00617	0.00869
47910	1.37897	0.81046	1.34139	22.93692	25.06926	21.85464	6.19024	6.85743	6.14759	15.44698	17.26179	17.96263	3.57549	3.61220	4.65298	33.79886	17.78854	10.28388
48070	6.01183	6.87101	5.99962	36.26679	46.67732	26.80919	7.65048	6.73077	7.50898	37.48417	43.57630	39.08127	5.97961	6.12984	8.17805	32.23669	32.73537	36.43464
48240	2.99829	3.53011	3.44329	34.43316	21.71540	35.52313	7.51217	4.45436	3.94404	30.76746	25.28998	28.19940	3.06532	2.94513	1.76450	16.96634	21.63676	17.44239
48410	4.92721	4.71855	6.86720	33.15298	14.33020	27.00560	11.76531	7.04081	10.13907	26.54408	51.11493	12.69401	9.75352	8.79409	5.13052	31.71644	40.54964	45.59772
48570	5.47392	6.69865	5.93777	29.05403	30.63683	22.85051	10.78725	5.49961	3.71033	23.66836	21.62165	34.14762	2.44370	2.30736	6.48009	27.73332	23.61788	15.54646
48730	2.72269	2.76400	3.64188	11.19840	24.04924	28.06177	8.03324	5.38799	2.75882	17.76306	28.81848	18.21195	4.23731	2.51804	3.84532	28.81648	29.89521	14.52687
48900	3.04259	2.87509	2.85536	25.54068	8.96911	17.11082	7.09812	7.51568	4.39875	27.51511	19.08696	27.29137	2.83721	2.72949	2.80342	15.13636	13.82734	14.97464
49060	6.02741	6.49950	6.44571	23.27495	24.55519	27.83397	11.49865	5.70938	6.43270	24.45239	19.41789	22.78634	3.67377	2.75603	2.49607	41.16309	25.53003	12.29151
49230	3.10779	2.85368	2.56957	18.22168	20.91398	21.64033	5.79928	4.18900	3.43039	18.53708	14.57393	15.37132	4.04293	3.36881	4.67020	19.40287	25.17938	26.81559
49400	1.62877	1.67670	2.92049	19.43345	19.64535	16.12587	7.48439	5.37284	4.82843	17.46218	21.42408	23.38166	4.51076	4.82724	5.34563	21.47386	14.91997	17.37879	22.24	6.1	0.00	7.35	0.01280	0.01292	0.01694	0.00779	0.00580	0.00636	0.00470	0.01271	0.01695	0.00676	0.00686	0.00901	0.01496	0.01102	0.01203	0.00218	0.00617	0.00869
49560	3.86123	3.85708	2.61099	8.61481	9.58316	11.96816	5.43516	5.82495	3.69617	14.57926	9.42183	9.66302	4.50632	4.88391	3.59553	25.34674	16.84632	21.82960
49730	3.93769	2.11590	2.47487	23.54046	22.79857	19.92134	7.64094	5.03812	5.01399	44.66118	19.79828	39.70669	5.95375	9.97376	5.76206	53.72326	34.60680	35.25225
49890	5.33772	4.16586	6.58056	44.78661	27.95909	18.50391	12.12135	8.78206	7.36009	33.97791	17.65858	23.58649	6.13740	6.38580	6.04677	39.10517	37.91004	14.22579
50060	5.46034	2.74294	0.98573	23.01785	14.38989	17.22615	6.94134	5.49559	5.17449	32.09878	17.27953	18.82398	5.08217	5.20983	6.72710	32.25139	18.30446	21.56253
50220	6.17129	5.43419	6.07167	33.33748	31.12639	24.38393	10.27637	6.71475	6.74813	16.69913	13.78679	12.21535	6.75945	4.00881	2.92196	25.74368	12.40196	14.41910
50390	5.57834	2.38766	5.22222	27.23977	11.60282	18.38896	8.31449	7.34383	4.66713	14.15479	12.42426	30.90178	5.05531	6.70465	6.50783	22.03330	27.14390	14.15510
50550	3.15948	4.95305	4.43444	10.04902	24.34678	20.85490	7.58301	7.08086	9.96798	17.33721	26.73507	28.11773	7.50726	2.77042	5.97291	28.07934	40.18860	30.68903
50720	7.63621	6.38092	5.41557	52.98821	73.48278	36.16347	7.67101	6.78444	10.67171	41.72014	23.73875	39.61567	5.98013	6.75111	5.83032	32.16624	42.07747	35.07084
50880	7.93997	3.89408	1.45683	37.92422	19.37169	26.95393	6.78935	5.38031	6.87698	41.62751	18.95183	15.42131	5.00067	5.23477	5.18724	14.90107	36.57020	24.16598
51050	4.89998	4.87608	6.87700	37.12841	38.14110	23.86552	10.10237	5.97348	6.94992	40.09002	40.47384	38.96231	6.28130	4.83615	4.18126	21.77293	28.94062	21.31092	22.24	6.1	0.00	7.39	0.01280	0.01292	0.01694	0.00779	0.00580	0.00636	0.00470	0.01271	0.01695	0.00676	0.00685	0.00901	0.01496	0.01102	0.01203	0.00218	0.00617	0.00869
51210	5.08342	6.06070	4.47941	49.45859	27.21976	27.35264	9.95151	6.81122	5.08286	35.89538	28.89754	42.94853	5.18777	8.85510	10.54921	36.45775	62.50697	23.64886
51380	6.24003	4.80911	6.87152	35.89031	36.39832	46.26866	10.57010	12.82550	10.73951	23.54067	30.46608	30.98724	8.96019	12.73441	12.81191	28.97093	19.27509	32.31727
51540	6.44297	7.59861	8.18514	17.52937	21.76641	30.42945	14.52662	8.67720	8.98485	27.63834	29.45665	30.62028	5.25337	8.92735	6.42585	44.21377	24.01380	19.15412
51710	4.66033	4.67942	7.46411	26.57863	27.97617	26.54748	9.34517	7.08300	4.89310	33.21235	21.41960	16.27198	9.06985	8.33004	4.24320	12.99381	19.93701	9.90208
51870	6.54417	2.90841	3.34149	21.68689	28.95799	26.97359	7.19282	4.53741	3.85101	28.68986	31.10423	34.87689	4.11979	4.88928	3.51964	30.80878	23.05267	27.52861
52040	2.16786	2.52127	2.55521	19.24949	33.26235	45.29910	10.23368	7.65246	4.55929	31.58617	34.45903	23.21624	4.00527	3.11369	1.95881	17.33654	9.34131	11.63106
52200	5.10107	5.57582	6.20072	14.48808	34.74167	21.81517	8.55161	7.87231	5.00077	19.85253	32.41684	19.56895	3.87018	3.10892	2.70099	33.13996	15.40082	22.82592
52370	2.39273	3.94610	1.89833	24.23359	13.43552	17.05500	6.12239	5.00304	4.06934	26.86594	29.93782	16.08020	4.04599	4.39116	4.84116	38.78554	30.78548	16.14277
52530	2.53458	3.17668	1.19975	17.65400	28.79714	30.22023	6.65147	7.34982	5.21537	23.73465	15.35326	14.58055	4.15751	4.11740	5.93110	27.24886	19.28295	17.13737
52700	5.58472	3.62803	2.09127	18.10106	32.77089	21.20363	6.79484	4.95422	2.61315	42.89477	26.94663	20.95834	2.03599	2.27520	1.86014	46.46701	55.62344	47.72917	22.18	6.1	0.00	6.53	0.01280	0.01292	0.01694	0.00779	0.00580	0.00636	0.00470	0.01271	0.01695	0.00676	0.00685	0.00901	0.01496	0.01102	0.01203	0.00218	0.00617	0.00869
52860	4.99913	5.02601	4.79745	27.51323	27.39316	30.62547	11.22054	9.59516	8.97808	44.60041	29.79263	21.29675	9.95814	8.78179	5.16099	66.57332	30.20678	24.94510
53030	11.21244	9.71870	8.84678	45.22680	53.03089	40.31261	12.08977	6.85084	5.07943	40.32880	22.43563	36.27757	6.33731	8.44618	7.48324	52.06998	26.90645	52.58716
53190	9.88722	6.85053	4.19218	42.50074	36.78213	42.42182	9.40731	9.75356	3.44696	41.54348	23.63422	30.96556	3.30334	4.62201	4.58821	36.70652	38.95876	61.50776
53360	2.58761	6.84228	6.20205	31.44184	37.84513	33.16905	9.18094	8.75108	10.60153	49.41935	43.48963	37.10426	5.95729	6.48281	8.57661	51.11502	48.38405	32.61058
53520	5.81662	4.50239	4.26579	47.71001	28.74292	34.70646	8.24238	6.41667	4.24806	31.28327	52.42430	24.75785	5.36615	6.31880	5.98490	31.56780	46.95818	33.24479
53690	4.50011	5.00732	5.10567	34.03026	28.59157	27.28309	7.69313	6.11511	5.50979	36.68517	24.08841	30.21588	5.58773	4.83071	5.69028	24.39921	38.22092	24.18380
53850	2.81146	4.12724	2.54074	33.01577	11.97536	24.45277	9.47405	5.33635	4.03663	25.81954	19.93795	17.60480	2.29861	4.29889	3.78610	26.46411	21.15226	9.35959
54020	3.01044	4.15703	3.40659	12.28559	6.28239	11.98279	6.07502	3.68073	3.10642	17.58136	9.59759	12.84377	3.47811	4.62592	3.50574	9.63736	7.72593	12.45868
54180	2.57551	2.19703	2.27339	18.41916	6.92034	8.50792	5.59298	4.71090	3.51516	20.96822	33.14883	27.48242	4.13671	5.59566	2.65917	16.26381	14.61244	27.67362
54350	4.31652	1.45263	3.60807	29.32796	18.83091	15.28424	9.75869	7.46812	6.19259	32.71741	16.42143	16.64408	3.62015	3.79864	2.23897	28.13208	19.90905	14.01652	22.24	5.9	0.00	7.68	0.01280	0.01292	0.01694	0.00779	0.00580	0.00636	0.00470	0.01271	0.01695	0.00677	0.00686	0.00901	0.01496	0.01102	0.01203	0.00218	0.00618	0.00869
54520	5.76685	1.96095	3.22744	19.78484	24.81158	29.91429	9.45130	6.61511	5.88992	34.21579	41.98771	44.86811	3.90941	6.00997	5.23220	20.27351	21.61085	37.42759
54680	3.12011	3.13289	3.67911	39.13906	34.89628	41.14126	6.43631	8.66826	5.98222	44.56385	44.42206	39.76740	6.47996	4.76850	3.92493	40.27754	22.00778	46.37862
54840	4.91423	4.91847	4.57111	26.64110	32.58172	37.50428	9.87666	10.45594	7.61629	26.91458	27.20585	58.50036	7.95575	6.81058	8.01980	47.85859	40.75826	46.01614
55010	5.72183	7.10929	7.35032	37.88232	40.19876	41.94218	11.37395	10.34578	7.64550	26.29124	16.05588	14.97036	9.12576	6.86782	6.79083	34.29424	36.14778	25.50898
55170	7.88297	3.96743	3.44477	14.45884	19.37224	12.17379	8.16746	5.38517	4.48542	17.59021	13.34436	12.91307	5.70291	4.32903	2.45781	11.54450	10.70005	11.81552
55340	3.03463	2.68353	1.11761	10.68642	17.63234	16.55930	7.70259	4.82772	2.82575	10.36191	12.45258	12.54834	5.94868	3.53486	3.64047	20.91262	11.54720	31.33754
55510	3.43225	3.32406	2.06978	20.23983	16.30478	20.29440	8.35520	6.15631	5.78431	23.12816	7.76604	9.04572	4.03344	3.85833	2.63835	11.42227	22.50478	18.21591
55670	1.65323	2.30827	3.41223	12.50265	21.32914	26.69932	8.98088	6.16274	4.52037	10.07698	7.61726	8.64514	2.09744	2.00100	2.01016	15.59619	10.85833	8.85199
55840	3.20327	2.66283	1.78795	9.28439	11.46176	14.02211	5.68904	3.81192	2.57993	13.67401	13.51523	14.63942	2.69326	2.80672	3.02599	16.94593	17.98330	21.96067
56000	1.88306	3.14601	3.53026	29.96035	19.84093	23.17292	10.70178	6.64865	2.98886	24.13971	37.45103	39.72379	5.71112	4.92563	4.57868	16.16066	23.50274	17.38527	22.24	6.1	0.00	7.37	0.01280	0.01292	0.01694	0.00779	0.00580	0.00636	0.00470	0.01271	0.01695	0.00676	0.00686	0.00901	0.01496	0.01102	0.01203	0.00218	0.00617	0.00869
56170	2.86409	4.79891	2.44850	19.65808	21.17728	39.54425	12.68467	7.31342	5.03286	16.65749	30.52153	40.60760	8.03824	5.79556	7.31538	29.37014	40.16908	41.62805
56330	4.71794	5.12631	4.44693	21.66448	39.22919	24.81427	12.46531	7.16285	6.41187	34.82506	41.22825	40.45941	6.94305	7.02186	7.35607	62.58017	32.98563	44.11148
56500	5.92548	5.51331	3.02257	44.35598	34.47530	27.93739	10.94543	5.53793	5.37374	28.00200	33.26764	45.51875	9.46950	8.21985	3.42790	48.15350	43.14999	45.47824
56660	3.71102	4.72238	4.51099	31.81432	24.18654	59.85724	7.29121	7.87845	6.28492	33.65073	31.08196	45.28441	5.95905	4.66023	3.57631	50.80112	39.86523	25.24937
56830	2.44418	2.23677	3.62691	23.21723	18.88997	21.32540	7.98864	5.05840	4.52756	13.62089	17.44221	20.68754	3.88002	4.74726	4.31718	29.98572	13.93302	32.97747
56990	2.84618	2.87979	3.33688	22.15387	23.65645	35.77893	9.33468	7.58457	5.60124	32.11591	32.50530	33.15585	3.35884	6.65949	5.94201	34.51413	20.00914	19.46658
57160	5.20110	4.32543	2.97064	19.31395	16.81829	19.60098	9.83185	4.38783	2.36173	27.19270	19.65638	18.40140	2.37888	4.96686	3.82736	26.60945	30.34827	29.85851
57320	3.61788	2.69317	3.98626	18.47423	23.02325	25.50129	7.78883	8.27200	4.02905	26.21603	27.95869	31.80153	4.50086	3.17690	2.24610	27.50758	14.21310	7.92484
57490	2.87640	2.52884	1.72500	9.08074	24.92829	10.18869	7.40041	4.78318	2.84938	20.20860	14.30778	16.17198	3.22359	5.26212	4.23532	14.15766	27.05018	16.35416
57650	5.56947	4.72338	4.74656	16.83590	20.25655	16.30310	9.61945	9.71070	6.48857	29.55935	16.55260	22.50443	2.92810	3.85800	3.92647	12.42061	30.23786	15.99650	22.24	6.1	0.00	7.34	0.01280	0.01292	0.01694	0.00779	0.00580	0.00636	0.00470	0.01271	0.01695	0.00677	0.00686	0.00901	0.01496	0.01102	0.01203	0.00218	0.00618	0.00869
57820	0.91635	1.27266	1.62866	6.70907	15.70756	24.70297	6.15029	5.30987	3.37608	22.54887	20.56619	31.04030	8.24179	5.36023	4.92581	37.50744	13.90115	21.19262
57980	9.02097	3.87924	4.05029	14.14323	36.51360	30.61189	10.63752	9.07590	9.25114	35.86778	29.91097	29.60979	5.78236	6.70764	7.04304	71.84731	57.58293	31.13724
58150	6.59743	4.97622	2.86038	27.63150	24.01468	20.21736	8.33597	4.20970	3.80632	18.99564	19.92475	14.53913	4.33677	4.35703	5.33210	42.84827	31.13700	32.00250
58310	5.76831	5.24801	5.20278	32.28913	36.37008	23.75902	9.98736	11.34574	7.18783	45.23317	23.26155	26.78237	6.07678	6.65650	4.03294	33.34793	32.89726	34.96998
58480	2.88207	2.90440	4.55510	19.35887	24.71400	17.48875	9.04573	8.41676	5.42583	36.68748	33.06948	31.03909	5.59793	3.81871	6.43512	39.21909	19.53954	40.19810
58640	6.31989	6.24780	4.69291	21.92586	16.41277	24.09734	9.92376	7.03513	3.90265	27.57092	20.63207	20.42868	2.91858	3.59804	2.84270	38.11170	48.85191	23.00596
58810	2.27726	3.08727	3.84665	33.60532	31.00647	26.89380	8.37680	6.60885	6.73697	43.95664	34.61852	41.33009	6.68580	4.78227	6.26325	25.12824	26.10998	52.85245
58970	4.80657	6.13963	5.95896	31.99956	50.19203	37.82414	15.16945	11.81861	10.98187	33.98988	32.93368	38.48868	4.94897	5.44449	6.68069	25.02372	40.68078	51.45260
59140	1.55222	1.98423	1.85675	59.03816	26.40218	28.91707	11.29980	12.31682	10.12574	30.87224	33.06567	26.99726	4.55685	4.28860	5.43206	28.67440	13.16561	14.16692
59300	4.06908	2.16491	4.12600	27.87525	44.15687	26.83407	5.99498	5.34378	5.83194	28.05617	28.69235	19.62312	7.40650	8.12645	4.08050	44.40191	40.04068	20.37275	22.30	6.2	0.00	7.38	0.01280	0.01292	0.01694	0.00779	0.00580	0.00636	0.00470	0.01271	0.01695	0.00677	0.00685	0.00901	0.01496	0.01102	0.01203	0.00218	0.00618	0.00869
59470	5.09337	5.02782	2.78866	15.99796	13.38346	14.23269	6.00221	3.64224	2.31894	28.37410	22.05734	20.52982	5.34609	2.83762	1.73648	39.62776	22.98660	23.29152
59630	4.82694	5.24923	3.63110	19.93949	27.90096	19.12971	8.72992	7.58614	3.41908	16.22850	16.53617	11.43905	3.32957	5.35183	3.46305	29.38121	24.14417	32.65724
59800	3.80163	4.63747	2.66669	25.98096	16.64318	23.53762	5.90908	5.89139	5.02590	13.53558	18.59229	17.26881	4.05981	2.06815	2.28020	35.20551	34.07302	28.55764
59960	2.22487	4.17470	4.14876	35.15872	30.56434	36.83876	9.32813	7.92599	6.08371	24.48413	21.47455	44.96043	7.72880	8.98034	7.17970	38.98876	29.77191	44.44168
60130	3.13970	2.70688	2.24846	13.85142	11.55319	15.27759	6.11811	4.36299	1.69244	19.73259	19.53059	19.08841	3.03081	3.60445	4.94896	24.31746	27.58854	44.76714
60290	6.29052	5.64868	6.35699	53.51505	27.14057	27.29843	13.70110	9.17366	5.33898	19.63502	23.95599	36.58965	5.34777	4.03182	4.38692	45.71239	48.26446	35.72372
60460	3.38610	3.00811	3.86181	27.21424	31.90216	37.72551	8.12463	5.06799	4.70241	25.77646	34.19041	36.44072	3.31730	5.16426	5.50925	30.14482	42.66830	62.35470
60620	7.40263	5.56920	3.15426	56.76250	22.42450	38.84712	8.61057	6.32574	3.48423	27.57734	16.93518	16.47067	1.57188	1.80722	2.11148	19.40360	10.04841	18.27419
60790	1.65321	2.38822	1.68320	12.71523	9.31934	8.21466	8.43703	6.32327	4.91052	16.97380	18.78067	8.34660	5.92209	4.11587	3.38672	12.81959	8.92027	10.86624
60950	3.46780	3.99595	4.18234	23.91032	15.20742	17.95842	6.65575	5.09995	6.32738	13.95291	20.32000	18.09808	8.31111	5.68786	3.89240	16.54861	20.68381	11.25090	22.24	6.0	0.00	7.48	0.01280	0.01292	0.01694	0.00779	0.00580	0.00636	0.00470	0.01270	0.01695	0.00677	0.00686	0.00901	0.01496	0.01102	0.01203	0.00218	0.00618	0.00869
61120	1.66417	1.22017	1.84345	20.24752	19.15048	12.46855	5.66079	3.83229	2.96856	12.91407	17.50881	17.74847	3.14351	5.42192	4.49246	12.97765	11.30467	8.12662
61280	3.07276	3.74819	2.26239	7.65043	5.07255	10.17050	5.48780	3.90064	3.34545	3.79234	8.51230	10.79707	4.01697	5.04726	4.51939	20.40641	14.71737	5.61724
61450	2.27637	2.15685	4.05776	4.09704	10.65747	16.77292	6.91209	5.02246	3.60309	6.59295	12.55033	11.78513	5.20181	4.64575	5.04506	22.04799	43.49511	31.99786
