WetView ver 7.1	07-18-2018	10:09:32
AC9 Absorption and Attenuation Meter
00000266		; Serial number
2	; structure version number
Reserved
0.000000	0.000000		; Depth calibration
19200			; Baud rate
0.100000			; Path length (meters)
31			; number of temperature calibration bins
				12.59339	13.44920	14.48425	15.49668	16.50852	17.49564	18.50545	19.52458	20.50176	21.48889	22.47318	23.48707	24.50962	25.49370	26.49784	27.51372	28.50746	29.47237	30.47938	31.50214	32.50470	33.49235	34.50337	35.50914	36.50618	37.52058	38.51018	39.51308	40.49994	41.49866	42.47204	; temperature bins
a650	Blue	20.34952		-0.00383	-0.00415	-0.00430	-0.00391	-0.00363	-0.00317	-0.00269	-0.00237	-0.00179	-0.00130	-0.00099	-0.00071	-0.00015	0.00000	0.00004	-0.00001	0.00015	0.00036	0.00058	0.00101	0.00161	0.00132	0.00160	0.00169	0.00242	0.00273	0.00336	0.00365	0.00427	0.00566	0.00670		; offset and temperature correction info
a676	Green	20.51193		-0.00398	-0.00384	-0.00360	-0.00306	-0.00302	-0.00255	-0.00235	-0.00212	-0.00163	-0.00136	-0.00118	-0.00089	-0.00029	0.00000	0.00068	0.00082	0.00099	0.00137	0.00145	0.00212	0.00260	0.00252	0.00321	0.00354	0.00457	0.00535	0.00617	0.00648	0.00742	0.00887	0.01002		; offset and temperature correction info
a715	Brown	20.23230		-0.00421	-0.00394	-0.00391	-0.00291	-0.00264	-0.00192	-0.00204	-0.00179	-0.00188	-0.00239	-0.00180	-0.00187	-0.00099	0.00000	0.00084	0.00162	0.00188	0.00224	0.00321	0.00381	0.00466	0.00528	0.00588	0.00696	0.00859	0.01041	0.01148	0.01282	0.01333	0.01456	0.01617		; offset and temperature correction info
c510	Red	20.40042		-0.00261	-0.00247	-0.00258	-0.00225	-0.00203	-0.00197	-0.00199	-0.00203	-0.00154	-0.00103	-0.00069	-0.00019	-0.00007	0.00000	0.00011	-0.00021	-0.00042	-0.00056	-0.00040	0.00011	0.00036	0.00050	0.00077	0.00079	0.00050	0.00042	0.00043	0.00092	0.00147	0.00200	0.00232		; offset and temperature correction info
c532	Magenta	20.40760		-0.00248	-0.00265	-0.00278	-0.00279	-0.00296	-0.00292	-0.00238	-0.00206	-0.00129	-0.00096	-0.00092	-0.00052	-0.00009	0.00000	0.00007	-0.00049	-0.00136	-0.00107	-0.00079	-0.00065	-0.00074	-0.00105	-0.00152	-0.00192	-0.00236	-0.00269	-0.00252	-0.00233	-0.00172	-0.00128	-0.00067		; offset and temperature correction info
c555	Black	20.50654		-0.00053	-0.00063	-0.00106	-0.00094	-0.00068	-0.00055	-0.00053	-0.00039	-0.00028	-0.00025	-0.00011	-0.00035	-0.00007	0.00000	-0.00037	-0.00055	-0.00036	-0.00014	0.00019	0.00044	0.00032	0.00040	0.00050	0.00028	0.00014	0.00013	0.00030	0.00073	0.00117	0.00176	0.00241		; offset and temperature correction info
a412	LtBlue	17.15231		-0.01972	-0.01823	-0.01612	-0.01381	-0.01272	-0.01080	-0.00959	-0.00866	-0.00710	-0.00532	-0.00354	-0.00148	-0.00028	0.00000	0.00176	0.00297	0.00394	0.00440	0.00453	0.00487	0.00804	0.00856	0.01065	0.01248	0.01388	0.01439	0.01659	0.01881	0.02256	0.02450	0.02719		; offset and temperature correction info
a440	LtGreen	18.00171		-0.00729	-0.00642	-0.00581	-0.00502	-0.00426	-0.00349	-0.00244	-0.00218	-0.00179	-0.00101	-0.00046	-0.00006	0.00036	0.00000	0.00040	0.00045	0.00030	-0.00015	-0.00024	-0.00035	0.00012	-0.00013	-0.00033	-0.00089	-0.00142	-0.00189	-0.00231	-0.00205	-0.00140	-0.00140	-0.00146		; offset and temperature correction info
a488	Yellow	18.86491		-0.00113	-0.00102	-0.00106	-0.00064	-0.00027	-0.00020	-0.00030	-0.00037	-0.00047	-0.00059	-0.00052	-0.00012	0.00008	0.00000	0.00025	0.00012	-0.00013	-0.00043	-0.00065	-0.00076	-0.00025	0.00010	0.00090	0.00111	0.00113	0.00104	0.00073	0.00068	0.00120	0.00186	0.00258		; offset and temperature correction info
c650	Blue	20.46075		-0.00145	-0.00097	-0.00092	-0.00139	-0.00185	-0.00196	-0.00237	-0.00266	-0.00238	-0.00163	-0.00083	-0.00041	-0.00010	0.00000	0.00005	-0.00001	0.00015	0.00034	0.00029	0.00065	0.00101	0.00164	0.00126	0.00156	0.00175	0.00270	0.00287	0.00371	0.00407	0.00473	0.00534		; offset and temperature correction info
c676	Green	20.10118		-0.00170	-0.00144	-0.00149	-0.00177	-0.00188	-0.00194	-0.00198	-0.00196	-0.00177	-0.00156	-0.00140	-0.00091	-0.00033	0.00000	0.00050	0.00092	0.00110	0.00141	0.00167	0.00199	0.00216	0.00265	0.00269	0.00289	0.00315	0.00374	0.00367	0.00408	0.00486	0.00561	0.00646		; offset and temperature correction info
c715	Brown	19.91219		-0.01201	-0.01097	-0.00859	-0.00680	-0.00651	-0.00592	-0.00535	-0.00440	-0.00387	-0.00303	-0.00222	-0.00153	-0.00028	0.00000	0.00093	0.00149	0.00247	0.00322	0.00330	0.00427	0.00373	0.00464	0.00536	0.00551	0.00643	0.00733	0.00779	0.00884	0.00899	0.01021	0.01120		; offset and temperature correction info
a510	Red	19.21192		0.00201	0.00193	0.00158	0.00098	0.00089	0.00049	0.00011	-0.00016	-0.00016	-0.00005	0.00028	0.00025	0.00006	0.00000	0.00035	-0.00022	-0.00023	-0.00080	-0.00144	-0.00154	-0.00153	-0.00204	-0.00220	-0.00219	-0.00190	-0.00128	-0.00069	-0.00018	0.00068	0.00152	0.00241		; offset and temperature correction info
a532	Magenta	19.41084		-0.00097	-0.00072	-0.00060	-0.00081	-0.00062	-0.00071	-0.00040	0.00020	0.00028	0.00043	0.00000	-0.00035	0.00007	0.00000	-0.00011	-0.00059	-0.00080	-0.00098	-0.00137	-0.00162	-0.00163	-0.00130	-0.00073	-0.00018	0.00090	0.00185	0.00175	0.00247	0.00291	0.00327	0.00349		; offset and temperature correction info
a555	Black	19.69776		0.00171	0.00183	0.00183	0.00186	0.00191	0.00170	0.00115	0.00131	0.00097	0.00073	0.00060	0.00013	0.00015	0.00000	0.00014	-0.00029	-0.00066	-0.00082	-0.00116	-0.00139	-0.00134	-0.00167	-0.00119	-0.00093	-0.00048	0.00053	0.00111	0.00095	0.00178	0.00206	0.00273		; offset and temperature correction info
c412	LtBlue	19.91180		-0.02051	-0.01853	-0.01589	-0.01311	-0.01059	-0.00877	-0.00705	-0.00581	-0.00413	-0.00231	-0.00098	-0.00066	-0.00011	0.00000	-0.00013	-0.00085	-0.00170	-0.00170	-0.00302	-0.00330	-0.00429	-0.00551	-0.00626	-0.00775	-0.00978	-0.01181	-0.01113	-0.01108	-0.01116	-0.01192	-0.01291		; offset and temperature correction info
c440	LtGreen	20.06241		-0.01064	-0.00992	-0.00892	-0.00766	-0.00639	-0.00531	-0.00478	-0.00384	-0.00287	-0.00187	-0.00102	-0.00063	-0.00023	0.00000	-0.00007	-0.00053	-0.00090	-0.00119	-0.00169	-0.00197	-0.00226	-0.00257	-0.00260	-0.00289	-0.00394	-0.00470	-0.00481	-0.00493	-0.00520	-0.00580	-0.00620		; offset and temperature correction info
c488	Yellow	20.35984		-0.01125	-0.01082	-0.00966	-0.00833	-0.00726	-0.00661	-0.00579	-0.00500	-0.00389	-0.00278	-0.00167	-0.00113	-0.00041	0.00000	0.00055	0.00121	0.00187	0.00226	0.00222	0.00251	0.00281	0.00359	0.00414	0.00427	0.00401	0.00404	0.00486	0.00563	0.00638	0.00684	0.00718		; offset and temperature correction info
0.003500	0.004000	0.015000	0.020000	0.015000	0.020000	2500.000000	2000.000000	1000.000000	; maxANoise	maxCNoise	maxADifference	maxCDifference	minACounts	minCCounts	minRCounts	maxTempSdev	maxDepthSdev
0			; auxilliary capabilities
1			; acquisition binsize
0	11.35828	10.35146	12.29974	58.78664	68.36206	87.32911	10.08887	10.89796	10.37924	41.88887	48.05098	40.35825	10.45634	10.82446	10.56240	50.61919	49.12761	51.18684	21.09	6.0	0.00	7.62	0.01282	0.01293	0.01703	0.00774	0.00577	0.00633	0.00471	0.01271	0.01697	0.00673	0.00682	0.00901	0.01497	0.01103	0.01203	0.00217	0.00614	0.00864
160	7.65570	9.56499	7.94755	61.98325	74.81812	72.70631	9.28817	8.65788	10.46735	60.01530	46.00987	55.09377	10.40507	8.51684	11.02928	66.46188	35.03591	28.90640
330	7.54376	8.68749	9.74798	36.29973	37.86525	33.68940	12.38200	10.72197	9.80658	38.03381	32.39849	23.32691	10.27335	11.57760	7.65575	36.00427	38.83281	22.53202
500	9.32861	8.74782	5.96606	65.70381	46.22472	57.18926	9.40830	8.06684	6.10659	45.71165	30.92513	40.62288	11.14713	11.92962	10.33110	63.85604	57.84576	42.13555
660	7.02128	11.30304	11.48700	32.98208	80.88345	26.08195	14.65826	13.02344	9.11161	43.09975	88.61686	80.45307	14.21471	12.13069	14.79309	60.46907	77.31337	101.59706
830	14.31612	12.77705	14.53151	69.71926	89.89467	103.65164	11.83233	15.10408	15.69431	65.77099	53.06102	81.03295	18.79699	14.97453	14.64043	107.00867	81.32347	103.65558
990	14.47504	12.77246	12.80824	97.71558	67.52425	36.55625	14.12558	14.57666	11.33525	64.84557	70.21530	52.62385	9.97286	8.94511	10.35935	75.36799	59.10249	63.84009
1160	8.55930	9.05839	7.57620	45.18366	49.00333	25.16350	6.47295	7.71075	6.17327	29.54568	35.34572	46.73747	6.60382	8.92282	7.96986	76.09825	45.96360	75.45881
1320	12.42676	12.27159	9.54707	39.25677	77.72674	50.82155	14.33971	12.35122	11.13824	85.51345	40.76746	25.91022	13.20042	11.41707	9.42308	41.64900	41.45258	33.20802
1490	10.29735	8.12241	9.05213	61.16580	60.16025	31.13928	8.39272	5.27103	5.67008	52.50698	48.44038	49.09323	4.77545	5.27890	7.39332	21.71251	30.22638	34.51366
1650	9.31277	7.71641	11.41705	22.97735	19.54356	31.67470	6.96917	6.10244	6.75104	34.23921	45.98309	47.71318	2.41086	2.19434	5.44057	24.97606	31.87935	22.53678	21.15	6.0	0.00	7.27	0.01282	0.01293	0.01703	0.00774	0.00577	0.00633	0.00471	0.01271	0.01697	0.00673	0.00682	0.00901	0.01497	0.01103	0.01203	0.00217	0.00614	0.00864
1820	5.39415	6.77049	5.56825	37.99196	63.50274	28.85445	8.08355	10.47284	10.12755	20.51028	28.26901	63.51540	6.24236	9.11637	8.64979	65.76330	52.82078	38.16685
1980	8.56631	8.48663	8.71683	79.59510	59.38174	46.93002	11.63408	10.78581	7.42902	29.75372	19.45454	31.55651	8.18841	12.70477	12.36942	36.45604	23.86750	55.64434
2150	10.49068	11.87906	11.57894	47.58443	36.82928	35.40177	9.84031	10.99603	8.57123	48.53650	44.98946	50.93686	9.70184	9.85331	8.36554	28.62429	55.97997	34.72651
2310	8.87850	6.97456	7.06265	68.33577	80.28869	37.58485	13.34180	7.08540	8.91517	47.49713	50.86059	49.33517	7.84127	10.72496	8.81840	61.66383	36.14240	46.23829
2480	9.19003	10.21684	10.13338	89.94301	63.92633	42.89966	14.98715	12.62335	12.42813	41.24007	40.13617	69.53198	12.41677	15.81710	14.59000	47.09725	41.28871	39.11971
2640	16.48134	12.97595	12.94231	55.59793	44.65791	65.45734	16.30109	16.99060	15.79638	37.87626	50.32032	62.37620	17.60120	10.15894	7.08221	56.54127	54.27911	61.31120
2810	14.80542	12.64009	12.26033	89.70395	94.44393	80.81968	8.04605	11.32956	11.92656	53.73312	61.05124	43.16506	7.61333	6.79256	6.91973	69.51269	39.00162	27.94020
2970	5.88690	5.76084	5.38322	55.07863	27.39812	61.39988	5.70210	7.78785	6.25585	50.41677	36.29844	38.06913	7.78659	9.79905	7.78490	39.62028	36.16813	35.61818
3140	10.68595	8.75389	6.77181	83.67845	67.39738	69.52466	7.38447	7.38366	12.83931	53.30599	43.10220	55.03503	12.78515	8.62271	9.74620	69.16583	68.77733	67.95705
3300	5.50544	7.20095	8.17996	51.53944	46.24319	43.25392	10.77667	11.34396	8.17648	53.30249	26.75915	47.02851	11.12920	10.22295	10.62536	82.43655	80.15019	77.76747	21.28	5.9	0.00	7.29	0.01282	0.01293	0.01703	0.00774	0.00577	0.00633	0.00471	0.01271	0.01697	0.00674	0.00682	0.00901	0.01497	0.01103	0.01203	0.00217	0.00614	0.00864
3460	9.53841	6.54347	5.02253	47.90173	77.75661	30.10243	8.29347	8.33508	7.66541	30.79940	24.71184	23.81550	7.82900	7.48497	4.33433	32.56338	30.85705	35.91459
3630	7.14413	7.11880	8.56153	44.03143	78.58904	70.89405	9.09756	11.00883	8.36514	45.44694	25.67479	24.51931	9.24596	10.96014	8.61026	72.71795	31.30512	81.90833
3790	10.65552	10.72069	7.10809	47.19279	39.15234	16.57703	10.88785	9.09992	10.81136	21.17028	37.99627	59.59056	9.94205	13.36583	10.74394	31.60567	28.41284	76.01965
3960	5.25442	5.36437	10.39397	66.71718	77.59813	33.98855	9.79670	6.05849	3.43862	43.75828	31.18564	43.48010	4.46922	5.96739	7.42722	58.54893	49.47242	56.89024
4120	9.53957	5.69794	4.40960	44.48056	54.79165	68.63939	6.85033	7.90112	8.21668	61.09914	43.14579	32.95273	9.37264	11.90117	13.42422	45.52992	35.07292	63.61894
4290	11.61410	11.49602	6.68948	31.11772	44.29632	27.42659	13.45159	12.56124	12.83872	38.62369	36.15145	38.92773	10.41124	11.78037	14.36957	83.33268	84.48542	69.62484
4450	9.09547	9.37378	9.96204	97.37007	87.85666	61.34341	14.15542	13.36639	12.47653	64.15259	46.04219	46.38443	10.89031	9.38612	8.59268	46.55386	41.72130	44.26166
4610	11.13055	12.11986	12.33032	47.61092	38.54669	87.40392	14.84509	8.84906	10.95515	78.32063	35.13595	25.45967	11.94848	9.64629	9.38400	38.67180	39.67471	41.21251
4780	8.12830	7.56597	10.33936	27.02784	22.98823	37.56059	10.51785	9.11850	8.61420	38.41426	28.19171	26.88048	5.64459	4.92517	9.42979	34.45389	39.39494	65.86603
4940	6.87832	6.64003	7.38821	32.93746	33.64727	19.28656	8.52187	8.57404	10.46318	56.94288	32.14203	14.19137	5.68876	10.31502	9.75684	41.49397	73.24051	41.38047	21.22	6.1	0.00	7.29	0.01282	0.01293	0.01703	0.00774	0.00577	0.00633	0.00471	0.01271	0.01697	0.00674	0.00682	0.00901	0.01497	0.01103	0.01203	0.00217	0.00614	0.00864
5110	7.45631	7.89259	8.97383	32.53984	30.81088	16.91545	8.92080	6.77156	3.46862	26.81909	21.09209	27.27033	3.93305	5.20812	4.66591	34.14876	64.98487	63.14007
5270	4.59140	8.62719	7.46771	32.01746	27.23557	63.00834	12.44308	13.71086	10.74493	44.18445	47.66934	46.95692	10.30482	8.65837	8.75919	38.75674	52.84761	44.90452
5440	6.06416	6.16754	8.16233	43.88509	35.43060	62.60700	6.79609	11.84132	8.70887	38.71472	41.14391	45.88889	5.46522	8.05686	7.30339	55.47662	56.79208	26.85078
5600	8.22446	7.29633	6.20595	58.19893	33.20334	38.28835	11.37076	6.29890	6.91879	26.57578	51.20095	24.36253	10.10853	8.57807	6.82207	37.14541	62.22802	52.02228
5770	5.08677	5.84592	6.70538	30.44063	25.41198	40.45587	9.85572	8.17057	4.39464	29.93718	24.30774	37.17300	3.10330	3.25740	4.34993	43.60300	38.65083	54.84258
5930	7.96609	4.73741	5.52939	46.94000	18.54131	31.60156	14.32891	10.67306	6.47411	28.26984	20.92506	17.25698	8.60704	7.21271	6.96744	39.80733	32.51561	31.73061
6100	6.27822	7.44743	7.33342	72.42243	38.04307	34.94237	8.21268	7.78040	9.81343	21.80680	33.82638	20.46691	6.38109	7.77724	5.57498	37.00467	44.52446	22.22234
6260	7.12434	6.65851	4.55406	23.40361	44.37904	43.49279	9.71349	7.41205	5.55797	82.83310	36.84702	31.82211	7.52741	8.21748	8.56215	41.60645	45.21591	43.66394
6430	11.16817	13.15010	9.59083	23.88455	29.44104	39.72108	14.02161	15.44819	12.61457	57.62844	43.01139	73.67717	15.03122	14.76819	16.80217	63.37855	44.67467	88.90454
6590	14.05928	13.28237	13.33897	113.29638	103.43934	93.60778	14.29845	14.42768	9.32222	70.49430	68.93553	97.43048	14.81040	11.82565	12.56487	88.82278	38.15753	50.34427	21.28	6.1	0.00	7.38	0.01282	0.01293	0.01703	0.00774	0.00577	0.00633	0.00471	0.01271	0.01697	0.00674	0.00682	0.00901	0.01496	0.01103	0.01203	0.00217	0.00614	0.00864
6750	10.71404	10.76247	7.68339	58.87221	57.64082	97.52257	10.80375	7.64875	7.87714	70.89758	46.79281	23.10100	7.69065	4.93422	6.39841	42.21136	43.23717	16.94888
6920	5.81545	8.17729	6.17864	24.30578	17.59238	41.38217	6.72221	8.38061	7.04405	57.35877	51.22797	46.59067	6.03368	5.26465	5.75563	34.25572	24.73848	20.13355
7080	8.35890	3.82174	7.77813	29.03099	40.39866	24.43700	11.62722	12.91488	7.23537	36.99734	27.88736	40.71895	10.00508	8.25969	6.67258	30.60592	34.06205	36.14291
7250	7.45495	11.72561	9.63819	17.83094	49.78153	57.01197	12.62201	11.41699	10.05313	39.87493	38.68351	35.70994	6.17889	6.52610	4.46693	64.20151	78.15407	51.09024
7410	5.84422	4.40725	5.04235	59.58613	60.01753	33.62645	11.00279	7.98956	6.83584	31.88326	25.40121	49.52356	6.15411	9.23216	6.74947	41.12510	30.48790	31.95968
7580	8.54133	9.88543	4.45277	47.69315	35.68901	27.48529	7.59350	5.91441	6.46261	30.35341	30.38870	18.05239	3.91606	2.83702	2.55955	56.00554	52.51454	34.72028
7740	5.59822	5.02373	5.41159	19.23765	24.15273	29.66810	3.91033	8.03679	7.60011	34.43653	30.31317	56.73890	5.34759	5.72687	4.73605	69.51932	49.51820	22.39235
7910	9.54945	9.30015	4.48923	44.16398	38.58218	23.20414	5.70467	7.84986	9.94766	39.69953	30.35598	18.24806	9.00920	8.48877	6.47386	64.96744	70.41471	78.07292
8070	3.82548	7.09943	9.54343	71.21221	62.15457	27.25719	13.67490	10.30238	10.31993	32.05695	28.17073	20.54219	5.86917	4.59785	6.80269	28.89395	24.01251	35.59777
8240	6.18464	8.49018	10.09844	29.39462	49.27692	55.01190	7.98640	13.84434	11.26816	34.11625	33.35618	45.08881	10.65578	9.95573	8.78844	24.26432	28.33992	15.23699	21.22	6.3	0.00	5.91	0.01281	0.01293	0.01703	0.00774	0.00577	0.00633	0.00471	0.01271	0.01697	0.00674	0.00682	0.00901	0.01496	0.01103	0.01203	0.00217	0.00614	0.00864
8400	4.90241	5.43861	5.60502	26.32793	21.43015	29.35305	8.17408	4.81507	6.00311	21.77858	23.67389	33.42537	6.22782	5.03151	10.14525	18.50203	15.45176	35.06221
8570	8.05688	7.98690	7.67902	20.06222	21.30867	17.55447	7.86249	8.30210	6.75524	23.37919	15.83190	22.99716	5.30325	7.23224	6.33916	37.76947	45.66329	36.94788
8730	5.46618	4.63411	3.88960	40.60423	43.53451	41.26164	4.59544	5.85298	5.68468	15.23128	16.31325	40.80735	5.74005	7.61231	8.99244	21.53677	34.39646	22.59310
8900	4.04454	4.18745	4.07731	31.26947	23.91319	29.46776	8.60817	4.78730	6.17856	27.75186	54.58232	30.03411	3.89080	3.63540	7.03912	57.58891	41.41789	49.72129
9060	3.69323	5.48646	7.47064	14.65362	23.58068	15.92217	12.66993	7.18977	4.95487	32.13484	30.10236	21.45011	9.80578	3.79121	4.68031	58.77417	30.66952	38.74990
9230	6.45053	5.59756	4.46136	28.72005	26.95158	46.82016	6.32391	9.06092	3.73094	45.51384	28.72587	30.06693	7.33420	6.33233	6.72535	38.32016	24.57876	34.11969
9390	11.18284	6.70769	8.50297	38.99438	24.84758	56.50751	11.58838	9.84479	11.92069	49.81142	49.57407	52.99030	9.44845	8.58037	10.77482	63.28065	58.23876	39.56110
9550	10.34588	11.70837	11.56144	67.88229	38.74598	24.85984	10.87515	10.74911	10.85670	46.71676	25.58755	28.75966	7.91991	12.07694	10.31346	59.61148	73.79154	43.80180
9720	12.24156	12.01968	9.51998	85.88909	92.73536	80.28850	9.99793	10.83529	13.24034	56.79131	33.53314	58.41752	7.94211	10.49509	9.16095	75.66229	63.40905	76.12876
9880	8.30442	8.57146	8.16243	38.78808	45.41766	48.72469	12.70298	10.54119	12.74059	70.92709	53.68132	60.35339	13.60837	10.06595	7.01711	73.57782	46.33287	57.15988	21.28	6.1	0.00	7.27	0.01281	0.01293	0.01702	0.00774	0.00577	0.00633	0.00471	0.01271	0.01697	0.00674	0.00682	0.00901	0.01496	0.01103	0.01203	0.00217	0.00614	0.00864
10050	10.11490	9.20782	11.28395	62.71971	37.96256	46.44715	9.54124	7.01034	10.01148	14.33577	33.06814	54.21307	8.34443	6.86407	9.54163	52.47925	44.45630	36.83297
10210	10.18480	6.67552	9.17474	61.99909	108.13762	80.28916	14.82958	11.91661	14.95376	76.22512	31.62652	44.97405	12.14326	9.93180	6.38348	67.89798	40.79791	24.73122
10380	7.94119	6.08664	4.48867	56.82596	37.69788	31.90747	11.17898	15.36245	8.77076	44.14631	35.50951	77.62418	11.14328	12.43706	7.84947	81.62847	92.72053	44.46998
10540	9.51230	10.96449	12.68494	50.29022	86.39011	46.59827	15.93598	13.16116	13.80783	85.57672	40.39683	46.91850	15.89191	12.65494	10.67230	65.04619	94.54375	40.03690
10710	11.60887	11.86106	10.43708	39.37109	74.58027	41.98256	11.37645	12.18154	11.09148	44.44264	49.46800	23.73211	10.11379	8.32243	9.98876	19.36519	36.96736	29.45519
10870	13.04250	9.91263	12.86394	28.51598	40.42209	38.98967	12.30644	11.98082	9.76239	49.07013	25.69357	32.04215	6.99243	7.52474	6.93457	24.01624	35.96537	47.91477
11040	5.20858	7.31241	8.39089	30.95309	19.36836	25.03285	7.50773	5.72035	6.04416	18.78970	27.74310	46.89391	6.92315	7.39648	7.40385	42.25618	40.17601	55.60393
11200	8.29600	10.98325	9.98661	79.48246	86.46615	71.37466	15.09469	13.00226	9.92762	63.49921	49.90601	56.00732	12.93745	10.99347	13.15561	79.93771	85.71986	95.51485
11370	14.18546	15.26929	14.09295	55.84937	48.29994	29.94792	7.97988	15.37809	12.67286	41.96394	28.78880	27.96994	10.84980	10.50183	10.65714	35.78283	43.18871	71.97100
11530	5.60666	6.18341	6.53626	35.73873	41.63694	83.15228	10.67097	7.82871	8.03838	38.66089	39.99061	43.96802	11.99323	5.44643	6.37747	34.38093	38.92330	57.19828	21.28	5.9	0.00	7.28	0.01281	0.01293	0.01702	0.00774	0.00577	0.00633	0.00471	0.01271	0.01697	0.00674	0.00682	0.00901	0.01496	0.01103	0.01203	0.00217	0.00614	0.00864
11700	7.51424	5.79703	5.82252	26.51377	80.96728	77.37391	13.49616	10.51196	12.32567	33.94756	52.01799	50.74159	10.56578	8.85928	10.37962	62.72826	60.34319	39.57157
11860	7.79468	7.15584	11.02295	62.38891	48.71529	55.76946	8.42018	7.61712	5.26210	32.72345	26.26110	52.04766	8.16948	5.09474	5.80477	64.18070	23.58875	24.87902
12030	5.33883	6.75812	5.91906	28.44606	19.97328	26.93948	5.85828	6.55519	6.35624	29.71713	15.06687	27.76887	5.88752	7.27029	7.42204	50.50923	34.90736	34.54072
12190	8.79374	7.27991	8.32393	56.98955	88.39547	63.36619	14.05615	11.78920	13.31343	86.51127	56.78546	48.37079	17.09191	18.71276	12.30751	40.25833	32.71043	71.80420
12360	15.25590	13.11969	8.75327	41.19366	59.67867	42.94839	12.90890	11.54588	10.30103	86.97958	44.98074	31.14992	9.54155	9.94025	3.93597	65.53244	56.44977	48.31186
12520	9.96771	8.42986	5.17663	32.32143	51.68888	58.64308	9.70170	11.53666	11.94699	31.80698	42.53528	68.90770	13.35934	10.80338	12.19674	58.45727	25.55582	37.47501
12680	11.89123	7.11349	10.39000	33.51744	32.31297	46.53572	15.16911	10.65500	13.32568	66.08295	24.07932	36.13123	7.75040	7.34248	8.55136	47.76064	40.61511	51.64887
12850	10.26921	7.58425	4.76306	44.62202	33.50227	9.19719	6.60262	9.02183	7.66055	19.73764	21.28311	17.16836	7.17577	4.74508	5.63032	19.21381	27.61753	37.96310
13010	4.53197	3.61139	4.01747	49.40587	31.87513	25.55920	8.14648	8.57672	4.06770	64.40199	48.08890	24.28083	3.29560	5.08701	4.27171	37.64504	69.31171	34.00484
13180	4.74162	4.19501	5.61678	36.91976	35.13000	25.31466	9.56548	9.96525	9.73094	22.96431	36.19812	35.43652	9.26747	8.19080	8.55134	37.29604	18.37993	13.66766	21.28	6.2	0.00	7.39	0.01281	0.01293	0.01702	0.00774	0.00577	0.00633	0.00470	0.01271	0.01697	0.00674	0.00682	0.00900	0.01496	0.01103	0.01203	0.00217	0.00614	0.00864
13340	8.41947	7.47104	6.98612	19.06274	22.49874	15.25511	4.51096	5.24278	3.51499	12.07326	15.45565	39.78743	3.54401	3.71794	6.58213	43.91492	37.22277	50.87192
13510	4.32447	7.11320	5.21304	35.57196	28.71909	21.29170	11.94867	12.62704	11.49168	28.74677	24.91354	38.46111	9.67009	9.91600	10.54463	36.27111	44.72040	30.77979
13670	8.17690	9.07341	7.77440	35.29397	41.33171	28.01972	11.15971	12.28363	10.50015	35.24623	53.92433	39.11380	9.05393	5.33334	7.25175	62.75957	55.70538	42.68552
13840	5.67333	5.45366	4.50255	33.33175	31.40850	34.57110	10.07477	12.79017	8.57808	43.26465	38.51859	25.34019	7.22545	8.30236	13.18954	60.01840	59.34194	50.20943
14000	10.37712	12.19663	7.93881	34.98669	21.62560	25.20600	6.55274	6.59375	7.59041	24.03499	36.90074	39.74935	8.46594	9.77998	9.89468	83.49429	69.40505	43.25072
14170	9.18934	12.73005	15.48382	75.32132	67.46292	51.18959	17.94065	15.74340	18.16147	73.20209	88.13382	79.48311	20.03083	18.15345	13.09016	62.46457	104.57463	78.07264
14330	13.96658	18.78979	14.15819	89.78117	74.76652	59.32983	22.49426	20.94783	21.96803	110.42454	125.58956	69.24003	12.22528	12.85000	11.33358	87.31363	70.48719	35.19415
14500	14.55568	14.56275	13.04801	75.39637	82.33391	51.76713	16.40571	11.73493	15.84525	32.92916	42.23365	67.31631	12.24491	8.63047	9.93881	57.89375	37.45834	32.14583
14660	10.95196	9.27630	8.62202	33.44263	63.44639	54.38755	12.80853	9.07103	9.77105	30.61502	48.14242	56.96615	9.99392	9.08748	6.58086	39.81187	56.52325	31.36526
14830	2.70810	4.31863	3.87039	43.61104	59.57109	57.53977	5.77558	4.62346	6.60832	40.58245	23.13207	25.40030	9.45443	6.67202	6.14820	34.03978	37.89802	28.96464	21.28	5.9	0.00	7.26	0.01281	0.01293	0.01702	0.00774	0.00577	0.00633	0.00470	0.01271	0.01697	0.00674	0.00682	0.00901	0.01496	0.01103	0.01203	0.00217	0.00614	0.00864
14990	2.37497	2.13918	2.26765	39.76189	28.10983	39.89089	6.61318	7.48221	3.46415	22.43095	31.31455	34.69163	2.80182	3.39790	1.86121	41.11236	27.77623	32.20368
15160	0.86146	0.91142	0.88482	32.61421	31.19907	27.61750	2.67102	2.06167	2.07847	15.24280	16.73332	15.26399	3.94126	6.06952	5.41585	22.77692	28.60032	23.88125
15320	5.29648	5.12623	7.29605	25.44927	21.71730	26.46214	10.93361	8.98900	7.32314	32.00136	16.53854	13.61663	5.52729	7.71876	8.13378	36.61754	25.16446	47.15283
15480	5.06698	2.88919	3.30582	30.54617	27.13156	37.28600	8.14685	8.58443	7.85308	59.78097	37.52873	46.94262	8.18971	11.99159	5.99218	45.69165	43.94081	55.74270
15650	6.85184	4.80153	7.61496	54.73696	41.98483	42.69942	9.21100	11.51274	8.34933	43.16351	40.36303	48.02744	4.96888	10.45781	8.17710	49.57388	38.54009	36.79132
15810	5.14264	8.12499	6.48031	36.80744	21.61818	37.99093	8.31598	5.74135	6.59816	33.22227	15.68695	27.54636	6.98144	5.04311	6.49921	36.95812	30.72952	57.07801
15980	5.98740	7.93816	8.02220	69.46417	75.65510	48.59412	13.90748	11.72171	14.34326	93.77491	58.66450	58.97511	17.48606	17.90246	15.78400	46.51051	69.04590	47.66084
16140	15.46059	14.89089	16.60115	54.11487	98.57786	81.25828	15.99244	14.80394	18.65357	92.04219	57.53594	52.93052	13.15730	16.48124	12.00979	94.01108	52.99327	85.36417
16310	15.56583	12.31919	16.94669	70.17567	35.27197	33.27568	9.22475	10.22183	11.71134	40.13601	14.03574	14.71448	9.98657	6.76535	10.00443	19.85714	49.11805	32.54215
16470	11.45710	10.92206	7.68576	62.00981	91.90625	91.45546	11.80743	9.77642	9.30047	40.86809	39.93705	39.84713	10.36371	7.60375	7.71223	77.12890	49.38481	43.01664	21.28	6.2	0.00	7.23	0.01281	0.01293	0.01702	0.00774	0.00577	0.00632	0.00470	0.01271	0.01697	0.00674	0.00682	0.00900	0.01496	0.01103	0.01203	0.00217	0.00614	0.00864
16640	8.83100	7.94592	5.75793	20.07585	19.89405	26.89455	5.75731	9.34048	10.44462	50.93993	40.97189	26.64640	15.42665	11.07444	12.67598	50.19512	58.08894	54.33305
16800	10.65145	7.52654	7.04695	41.18950	37.23120	29.85946	8.02075	14.05896	9.81849	73.49957	49.94388	38.11093	7.35330	6.13619	4.81351	56.19885	32.71342	46.28667
16960	6.98880	6.69049	10.18841	47.13781	21.93510	33.80604	14.96249	13.32902	8.52812	28.06246	23.90437	19.87740	9.15563	8.94356	7.60744	48.76222	29.69197	25.69646
17130	3.63489	3.62666	3.83851	52.17932	47.07176	37.17098	11.39854	7.84588	7.08488	34.91515	42.04831	25.37123	5.69114	9.22698	8.60559	40.34358	41.38406	20.84139
17290	8.67659	11.81436	9.54817	29.55711	28.83437	14.60757	5.30824	3.62565	6.29474	49.51900	32.51755	34.27731	10.97436	6.83859	7.28372	24.63657	22.02552	14.32866
17460	8.13939	7.39326	5.33460	20.66166	26.39714	23.29968	10.89476	8.33490	6.92254	41.05920	42.39488	34.80947	9.70750	11.55467	9.40837	41.08351	31.08506	43.46644
17620	6.57567	10.17393	8.19726	28.45040	28.66667	20.59635	7.92149	7.34391	6.59883	40.04558	49.83043	51.62555	7.39516	8.00382	8.01161	66.51371	50.16566	65.05689
17780	8.96026	6.83894	9.00096	80.80965	70.11100	79.22439	6.85317	9.09933	5.79168	57.36966	68.84331	80.50563	12.47318	15.74989	13.20264	46.18035	26.44612	37.91038
17950	10.92774	12.58555	9.64614	64.92457	52.21078	83.29578	14.07025	15.82032	10.53327	69.21044	67.72925	42.16211	10.49715	10.10867	12.69138	37.39116	38.54376	66.85245
18110	11.16949	12.23267	9.97649	65.34210	33.14305	36.88566	13.21952	14.15310	16.37881	46.69414	39.23798	90.26710	14.20031	11.32037	11.15860	51.19415	50.92377	95.13834	21.35	6.1	0.00	7.24	0.01281	0.01293	0.01702	0.00774	0.00577	0.00632	0.00470	0.01270	0.01696	0.00673	0.00682	0.00900	0.01496	0.01103	0.01203	0.00216	0.00613	0.00864
18280	17.93457	17.12379	13.38765	53.85856	74.64551	36.38682	15.71899	15.41351	14.06980	44.99362	39.80747	77.94566	12.26109	9.95806	11.44765	39.13057	26.57250	32.85203
18440	9.11991	8.48451	9.87308	66.66659	52.89959	80.85539	10.09842	11.68054	9.24978	49.08538	38.67562	41.81399	8.98290	8.83640	6.29586	60.76436	60.94559	81.15418
18610	10.55967	9.79282	8.49769	82.26970	47.83081	92.40847	10.71995	12.51536	8.69928	30.78339	26.06954	40.70036	8.19619	6.11258	5.71815	75.78878	76.50967	71.36096
18770	4.11653	6.20759	5.60873	40.34708	45.65629	56.78381	7.37649	5.52471	6.33262	26.83111	27.18422	23.40980	7.34640	3.78012	5.38980	34.88709	40.43395	47.10913
18930	7.69851	4.47498	6.43631	29.24168	31.33510	43.36776	9.09327	6.24753	5.34823	55.48009	38.84456	43.55499	4.82121	7.69109	7.92216	34.90557	34.67114	29.31657
19100	7.41132	9.97333	8.37923	55.55019	40.10076	27.16771	10.73114	10.87262	8.41315	42.71948	49.76537	37.95521	8.25996	6.67682	4.40081	39.15128	27.60080	17.94504
19260	7.40027	9.11332	5.90772	37.76418	33.39042	32.96408	8.19012	9.57793	9.91834	32.70095	49.59529	59.25129	5.69121	4.80805	5.88040	45.87937	36.03587	35.92092
19430	5.78201	7.69110	9.45614	56.95415	50.25774	36.16513	8.55983	4.88408	6.91834	16.18437	33.86062	16.11349	3.50265	2.56025	9.10142	31.87520	35.03220	27.13460
19590	5.34221	5.27760	6.67037	45.35098	51.36988	19.25279	11.39841	10.28447	9.93804	53.25688	47.63224	31.64040	11.20965	8.08130	6.10842	29.98197	41.24606	29.31961
19750	7.54574	4.42214	3.13836	45.13363	70.98349	45.71266	5.56950	9.37095	8.09905	80.97865	83.99741	65.21316	5.21713	3.41886	5.28553	83.64714	46.68075	33.52853	21.28	6.1	0.00	7.26	0.01281	0.01293	0.01702	0.00774	0.00577	0.00632	0.00470	0.01270	0.01696	0.00674	0.00682	0.00900	0.01496	0.01103	0.01203	0.00217	0.00614	0.00864
19920	6.71305	7.90609	9.90501	41.65100	68.15957	78.11704	13.75787	9.05202	9.06729	81.09207	60.58336	69.62399	11.32057	10.90483	9.94437	85.79825	74.19193	45.11383
20080	10.74583	10.35147	10.41922	67.07669	41.90277	31.22391	10.50076	11.25648	9.48190	46.96793	44.15300	65.35536	11.00497	11.47737	12.76006	40.80905	51.87470	59.05247
20250	9.53454	8.11327	5.96843	31.86821	43.45433	32.96380	6.24804	5.48777	5.42052	51.26872	40.41298	40.25016	4.89487	5.85092	6.60910	23.73814	25.37795	27.66626
20410	9.61909	7.36480	7.40262	60.32302	33.02312	19.26183	12.85280	8.19384	9.15539	38.92387	46.76938	52.50563	8.67925	9.25393	7.24137	24.55142	30.06091	34.25087
20580	4.76151	3.75930	5.66558	32.76568	34.86203	41.33359	5.99813	4.90585	2.76048	18.70177	28.10972	41.71960	2.70254	3.31381	3.12229	56.22834	33.08141	38.64108
20740	2.72399	1.49673	4.16693	23.17998	20.21502	24.76227	7.07486	4.37412	4.98042	12.42690	26.54670	25.70651	6.20448	5.29092	4.38484	16.19401	14.88573	22.51346
20910	1.80006	2.40959	3.65089	19.09463	20.32481	21.45827	5.29740	7.30474	8.12328	13.69992	14.47934	10.89655	7.51730	4.55143	4.68707	32.96114	21.65905	17.00599
21070	2.79174	4.79566	5.80283	28.87941	29.68417	24.66766	4.25852	6.15530	3.08855	25.51455	24.06312	27.15295	4.67620	2.46081	5.96950	29.74538	19.55675	5.67359
21240	4.74170	5.63963	6.55195	15.35608	30.69293	15.89853	5.26521	5.78227	7.25327	20.12313	22.12868	29.61244	4.38088	9.36055	8.42035	23.13992	14.80721	29.25717
21400	4.90222	5.14775	6.70598	27.32406	23.25640	33.83013	9.49008	8.66260	4.50613	35.95077	41.84335	18.26391	10.62373	6.19548	5.96483	48.06730	44.89175	40.30628	21.35	6.0	0.00	7.45	0.01281	0.01293	0.01702	0.00774	0.00577	0.00632	0.00470	0.01270	0.01696	0.00674	0.00682	0.00900	0.01496	0.01103	0.01203	0.00217	0.00613	0.00864
21560	8.59176	10.36321	6.73216	41.97984	44.46618	24.50219	8.24224	8.48757	7.84049	45.55882	40.46946	30.82883	11.41583	10.42145	8.86617	15.81313	25.31025	37.78154
21730	7.76077	6.95204	6.83195	39.72497	44.33984	23.15887	8.38775	8.75392	4.91894	20.44622	36.76266	60.13534	5.25615	3.64034	5.68137	25.43943	9.13406	15.01349
21890	7.82070	5.80146	7.43558	30.11424	22.35164	19.39945	10.73983	10.73728	5.34673	29.56421	49.95976	26.98099	5.80685	5.68286	5.79416	46.10414	29.33753	27.48664
22060	7.29873	9.31061	8.38192	35.50380	43.71080	32.42970	8.88894	7.86409	9.52931	31.51680	41.47788	26.89067	9.45928	6.60950	5.06631	37.99987	43.71857	34.08012
22220	3.66644	5.09062	6.30412	47.09410	57.05528	52.84178	12.29941	10.59116	11.15304	73.55278	56.79988	22.75935	6.67699	9.47440	13.11355	27.14219	24.99387	48.29992
22390	9.65157	13.84009	13.51301	63.55870	59.77336	65.21047	18.32481	17.71214	14.64408	20.06808	19.04745	62.08800	16.95812	16.49668	12.84167	79.27626	77.34097	36.28243
22550	8.69313	5.68918	6.47823	49.07121	50.66886	42.17885	12.67029	7.97389	8.21835	32.46165	25.02263	31.39515	7.07697	4.13334	4.88974	43.85459	39.90828	64.07804
22720	4.90154	6.12417	6.94105	25.51826	36.86573	28.21882	5.25064	3.98954	1.75250	44.82451	22.63691	39.24896	3.50454	5.64046	4.07856	24.02961	20.35362	24.33409
22880	4.41243	4.59889	6.03271	39.62968	22.04095	22.47096	15.05419	9.84029	8.65747	17.50647	19.78525	38.69866	6.35045	7.05783	4.34662	69.90715	39.25248	27.64214
23050	4.43728	5.94390	6.44721	40.65855	25.34490	31.33006	9.06233	10.41659	8.04664	21.96127	17.62932	35.11766	8.91521	8.61049	7.67213	30.23900	20.71348	15.29659	21.41	6.0	0.00	7.25	0.01281	0.01293	0.01702	0.00774	0.00577	0.00632	0.00470	0.01270	0.01696	0.00674	0.00682	0.00900	0.01496	0.01102	0.01203	0.00217	0.00614	0.00864
23210	7.54929	4.51955	4.36512	25.93405	46.86111	37.64236	6.53205	6.26236	4.52209	39.70181	34.79304	51.30299	4.32276	5.60955	6.58717	40.19001	55.88392	36.98226
23380	11.99183	9.55919	8.46292	26.51958	20.23171	26.76033	7.71225	6.51657	7.55249	24.57170	25.19470	16.45551	6.43653	8.77293	7.72574	37.98160	25.71243	23.12268
23540	8.49545	7.56505	5.90468	40.27981	19.32717	22.36256	10.84478	8.59470	7.53015	26.53864	29.92689	28.80593	3.85529	4.22043	3.64193	43.23054	36.42532	24.76214
23700	3.47169	3.31160	8.47137	21.85937	16.93679	25.51526	5.22277	9.32462	9.08093	11.07923	19.49979	15.81354	7.65123	11.30512	9.61257	21.10489	24.79356	31.53749
23870	5.04391	7.78704	5.16295	58.83166	43.06583	27.67518	6.81371	4.68058	5.86002	28.90385	41.70743	43.49440	7.87824	12.22072	10.02543	36.17936	29.27820	35.32042
24030	11.82504	9.13786	8.07142	23.75071	39.41226	45.45399	9.92284	13.13531	12.01970	39.43753	27.14015	68.94779	10.45270	9.51526	10.08355	66.74713	50.94539	71.04782
24200	10.76278	9.65597	9.55447	84.52799	40.85492	44.24410	9.26076	11.71809	13.66349	59.60694	39.56422	64.42551	10.76764	13.92568	11.84562	62.34157	77.04822	70.54531
24360	11.93874	9.66062	11.39228	72.97899	87.09428	81.46315	9.97177	9.58429	9.23523	68.90378	64.64492	43.37545	7.85719	8.77522	7.94213	33.40809	21.48229	31.65161
24530	5.19130	7.69009	6.67738	43.49109	65.60316	36.94306	10.96653	9.30402	11.05454	27.98715	73.29489	53.37339	7.72628	6.71515	10.13746	33.28366	35.53714	46.38878
24690	5.50840	5.33633	5.38943	24.66518	20.67794	12.63245	7.01353	6.73619	7.50117	39.88639	37.38355	52.33384	10.12550	8.82582	10.40364	25.59987	28.07156	32.96402	21.41	6.1	0.00	7.37	0.01281	0.01293	0.01702	0.00774	0.00577	0.00632	0.00470	0.01270	0.01696	0.00674	0.00682	0.00900	0.01496	0.01102	0.01203	0.00216	0.00613	0.00864
24850	6.52730	10.95578	7.87832	28.98145	34.31335	43.79504	13.83704	8.64952	8.47842	28.45056	13.97326	27.95850	5.35775	4.79380	10.02618	24.90781	30.95148	19.91524
25020	5.70794	4.59440	6.64694	89.93733	55.59010	38.13221	13.66604	7.01391	6.57888	87.04919	61.81564	43.59794	8.07956	11.36537	9.75437	54.01500	49.53092	40.03364
25180	8.03818	8.08033	6.73251	37.17348	51.36166	46.53477	10.43910	12.69160	7.38045	42.72133	45.90538	52.94495	8.57451	10.85780	8.45581	36.71763	37.90173	26.03437
25340	6.92346	7.62296	5.71754	61.20533	46.77667	44.85875	3.83029	5.27560	4.43770	34.32910	29.21617	28.57738	6.01013	5.68808	10.06934	45.05752	41.77245	42.63156
25510	6.90003	7.36280	8.25945	29.28205	35.14705	35.29694	10.44001	8.08584	4.14944	12.32555	30.49549	29.10594	5.46726	5.43812	5.34891	23.24764	60.32283	60.54788
25670	6.52210	7.25842	10.40628	65.81281	76.24272	48.17517	5.84645	4.90366	8.64436	35.31891	32.73162	34.70318	8.60664	5.83605	4.01535	20.81814	27.95175	34.90783
25840	10.33556	6.94822	7.60474	32.33255	72.04261	24.23760	6.38020	4.41758	6.92547	29.93898	26.39201	47.21136	6.55551	7.43038	9.16023	50.62056	25.56207	49.45362
26000	2.22700	6.71070	3.48614	59.07836	66.58668	51.29172	8.15227	6.73780	3.60235	20.99798	33.46486	30.25359	5.04300	5.28480	6.77018	47.54833	33.79708	46.74749
26170	6.81035	8.84645	4.84457	45.09183	50.47140	47.51527	8.16026	6.53728	4.85599	42.39962	38.34433	35.42747	4.93676	3.66792	4.98050	32.55179	50.24202	21.35668
26330	6.45351	5.93307	2.82814	31.15567	43.21928	56.95266	4.97850	3.15880	2.51226	21.94374	20.42282	34.04391	3.79301	3.39738	4.83720	37.65672	41.11950	20.86968	21.41	6.2	0.00	7.41	0.01281	0.01293	0.01702	0.00774	0.00577	0.00632	0.00470	0.01270	0.01696	0.00674	0.00682	0.00900	0.01496	0.01103	0.01203	0.00216	0.00614	0.00864
26490	8.32913	8.85299	7.19318	35.62339	29.11061	22.81593	10.68156	7.20869	7.09469	33.75963	30.09169	43.15215	9.98154	11.11839	8.50608	43.84619	38.27044	22.90878
26660	4.83748	4.83605	7.55908	36.58493	35.68495	34.80125	8.02098	9.33737	6.97843	40.93483	41.74987	40.20675	2.70243	4.90360	9.99062	58.71791	46.06293	44.43664
26820	9.06908	10.11941	8.23222	36.05329	35.61238	76.48781	14.19231	11.40118	14.62488	47.47452	49.66587	52.75228	11.35682	8.47983	7.47800	43.09929	87.77546	51.84683
26980	9.29509	8.44662	7.28458	38.16785	27.79765	15.66893	10.88781	10.23773	8.99936	41.10208	30.40663	18.79841	9.01871	3.43687	3.03763	27.54160	18.24040	51.01725
27150	2.56039	3.29040	2.51939	23.11939	32.68406	20.96137	5.13339	4.16413	5.21445	14.71768	22.10588	29.16035	2.14285	1.79733	1.71615	22.14410	27.44744	34.01562
27310	6.24215	7.57468	7.20495	76.15467	50.40784	40.40411	10.37544	8.35671	8.42226	40.29892	39.71302	40.14797	7.52007	6.66282	7.03982	40.32026	24.84142	22.05763
27480	5.48587	5.10846	3.55011	25.64764	32.72257	39.06879	9.46715	9.59354	8.68664	27.23652	28.77236	27.94259	4.40746	4.57586	5.63570	25.65379	20.14141	41.27987
27640	5.31665	8.17125	3.86356	37.70174	42.20194	25.46636	8.27570	8.37439	5.18209	32.06781	23.62908	29.22902	2.94256	3.42877	6.06042	39.13371	29.44943	43.62526
27810	3.16350	3.58357	4.65056	30.59324	31.28057	73.19971	8.74179	10.17785	9.07098	31.39940	45.90980	44.80144	9.01116	10.15381	7.04578	61.15505	34.31327	54.80328
27970	2.61849	5.89591	10.90092	78.42626	30.41453	33.70497	12.74466	9.39514	9.19095	34.72833	43.85613	48.57203	8.93559	6.81352	10.16729	68.16698	37.52474	60.00987	21.48	6.2	0.00	7.28	0.01281	0.01293	0.01702	0.00774	0.00577	0.00632	0.00470	0.01270	0.01696	0.00674	0.00682	0.00900	0.01496	0.01102	0.01203	0.00216	0.00613	0.00864
28140	8.52211	9.29385	6.44328	38.56244	41.00792	28.14310	13.02728	11.61362	10.72795	31.11387	27.80737	30.83318	6.64221	6.62922	7.43803	35.59924	39.09553	44.42211
28300	5.84977	8.24852	6.49969	25.38484	39.98607	44.78185	11.87407	11.84272	9.00430	35.61756	29.87958	31.94549	12.63525	8.51223	10.19808	45.18936	18.32027	28.21071
28470	9.79170	10.43640	8.66999	30.85392	19.95036	38.54783	9.02097	6.59730	5.74956	62.27383	20.33763	41.89496	4.71241	5.57207	4.84403	28.38013	41.55686	30.47913
28630	5.30849	3.95424	3.62342	27.10360	43.87772	15.60781	6.77309	6.49607	5.74800	22.78179	25.04293	29.52570	5.35046	10.26806	3.47418	29.52178	63.14642	77.44112
28800	9.13925	8.66788	7.74231	34.46792	36.54966	43.19177	6.12693	7.99358	7.45723	29.51517	35.04853	19.34632	9.11574	6.56588	7.31417	17.47362	41.11259	36.56548
28960	6.53211	8.65728	9.57434	35.05435	24.68558	17.43808	10.43288	10.27091	6.69964	35.16172	17.15663	18.67262	10.71688	8.95692	10.08706	51.24842	44.74379	40.21253
29130	10.41776	12.99018	12.00796	40.68517	30.94913	40.87250	11.49578	9.70367	12.61725	31.66777	34.02330	48.67137	9.14582	7.98622	10.57958	44.11023	57.87631	58.89245
29290	7.48939	7.34675	8.96237	34.75312	38.17335	42.18100	7.70706	7.72154	7.22383	83.83206	50.25297	57.67292	6.71991	7.08947	11.22988	45.08288	51.39158	69.11475
29460	8.84670	11.95366	9.95641	39.63748	66.39496	61.04758	14.55215	11.65880	7.33863	53.96767	46.92218	34.29561	11.13135	9.27027	8.00015	47.71781	55.81164	37.83240
29620	5.69054	7.31216	8.14082	24.65764	44.27603	62.27303	11.23413	12.93849	8.29692	41.64181	67.12355	46.60972	13.52463	12.01096	9.28927	34.76013	35.64826	40.35999	21.54	6.1	0.00	7.27	0.01281	0.01293	0.01701	0.00774	0.00577	0.00632	0.00470	0.01270	0.01696	0.00673	0.00682	0.00900	0.01496	0.01102	0.01203	0.00216	0.00613	0.00864
29790	11.85947	11.36052	9.90539	32.19879	56.22661	34.98102	9.98963	7.65339	6.30308	33.65541	27.87524	28.30469	11.30673	12.00668	12.60474	43.17366	55.25572	63.67811
29950	12.28070	15.46911	18.27087	59.77516	55.69513	38.30357	17.27215	18.26776	20.94787	92.62430	46.93734	46.48341	14.79279	16.46639	18.02026	59.93320	59.06576	94.89232
30120	13.05554	12.76466	11.57731	85.15568	77.31112	54.02007	14.40989	12.22071	11.82452	90.96303	88.13219	42.17162	13.19289	17.51880	16.00598	77.80565	73.19630	58.60140
30280	12.55253	11.36911	10.12462	68.71729	62.17229	52.89380	14.60064	17.59614	17.80594	62.08202	63.85702	74.41140	14.81710	9.06742	8.38693	47.94337	35.95768	42.44403
30450	8.87584	10.50246	10.17956	71.21802	50.39092	95.61967	9.92491	11.23240	10.98803	65.63254	75.28356	42.26897	6.44933	5.53541	4.60820	67.82985	51.81305	50.74847
30610	4.55406	6.88871	9.45993	53.18734	72.86661	50.91906	12.55475	11.40662	8.28289	37.98700	38.51697	37.44777	8.31775	6.50729	8.93022	60.00890	72.82839	54.01656
30780	7.45027	9.33547	6.66006	43.08639	35.09987	43.99944	8.55819	8.83502	5.24258	32.59883	15.24657	20.39671	4.82868	5.84532	4.04186	54.12597	53.90197	32.14940
30940	4.88546	5.39614	4.73716	22.94114	36.53523	37.74753	10.69738	9.07411	8.16628	24.61884	31.37895	38.71846	10.13015	9.27741	8.32435	30.08202	37.42652	67.73276
31110	11.92971	9.70591	9.72442	73.79339	71.37565	49.35643	11.75063	8.01460	7.63480	42.86112	31.41792	40.05514	5.76532	4.82486	5.00693	21.80043	10.34921	21.87618
31270	4.74662	4.52972	3.55645	30.24922	25.04127	42.54848	7.44790	6.68938	5.48058	21.53234	18.21253	22.37828	4.11720	7.63190	5.30087	49.33925	36.23533	34.62378	21.48	6.1	0.00	7.28	0.01281	0.01293	0.01701	0.00774	0.00577	0.00632	0.00470	0.01270	0.01696	0.00674	0.00682	0.00900	0.01496	0.01102	0.01203	0.00216	0.00613	0.00864
31440	5.38304	5.34223	5.43446	28.42381	28.76736	17.10781	6.70129	8.57813	6.27424	15.90380	20.51359	35.49034	5.06454	6.27569	6.77509	37.75785	36.40716	67.04885
31600	5.05839	7.56422	8.08996	57.28671	31.19110	27.08015	7.46919	6.31786	8.52564	20.09523	26.58258	45.89890	9.72439	10.68857	9.38265	34.33746	72.71503	30.37578
31770	10.09095	9.28628	15.89078	22.98517	25.41408	43.66848	17.85205	12.53617	11.89114	64.18044	33.15416	26.48736	13.55107	12.19711	14.75940	39.69167	58.90391	35.27015
31930	14.14025	12.47325	12.08971	83.71432	65.29183	71.40872	10.10942	11.01548	14.20948	36.12159	30.96183	44.08489	12.15641	12.40374	12.04899	37.67772	52.78133	45.78844
32100	8.13216	9.50195	9.67522	41.56135	19.14964	29.16646	9.43967	10.73729	7.42809	35.38121	29.39508	66.77197	7.80595	7.98527	4.96851	28.00120	37.30380	18.09814
32260	7.30574	5.01681	6.32915	36.88019	46.94105	39.40668	9.41293	8.88845	6.81448	35.75149	21.13933	32.39028	8.83426	9.60007	5.77795	73.54554	46.23224	30.25684
32420	2.05138	3.69321	2.92138	41.84601	38.21991	20.68439	6.54963	4.66109	7.93479	13.62700	18.94492	26.43637	8.11602	11.92139	9.63885	76.46165	40.75288	23.30590
32590	12.74806	9.21723	12.79081	45.82041	49.94928	61.53365	11.77066	13.28860	13.27554	52.14211	66.64305	69.09717	16.26054	12.05060	12.71886	71.82085	46.91913	47.91103
32750	11.92250	12.61424	12.88561	59.22893	52.30987	33.13896	13.44593	13.36863	12.69603	51.91551	72.57062	53.31187	7.61428	11.24776	11.94929	62.67776	81.45469	36.44212
32920	11.02260	8.89512	8.61042	42.97637	44.30377	55.55945	8.83852	9.31300	7.65353	24.17468	23.44155	41.59114	4.97963	3.78517	6.27207	33.86639	41.14007	44.12275	21.54	6.1	0.00	7.27	0.01281	0.01293	0.01701	0.00774	0.00577	0.00632	0.00470	0.01270	0.01696	0.00673	0.00682	0.00900	0.01496	0.01102	0.01203	0.00216	0.00613	0.00864
33080	6.58532	7.34389	6.90994	28.35085	37.24465	45.40983	7.60464	7.25588	5.57959	38.23469	28.71941	24.84982	7.89686	7.03950	4.30314	33.16009	22.63726	30.53520
33250	7.58980	6.88846	5.22869	21.96703	25.15598	18.46716	5.20793	4.37803	4.63016	23.09588	14.88559	21.22370	2.75059	4.07861	3.68543	45.05475	36.83696	30.86463
33410	2.65071	5.21788	7.32192	32.60816	33.14523	37.79951	8.58831	6.11749	5.27631	42.46863	49.22998	54.93918	6.81939	6.78977	6.81415	22.18849	21.88054	45.33397
33580	5.73591	4.81937	4.06529	25.58571	23.17116	34.13961	5.77285	6.68639	9.41316	34.38627	25.93340	33.24638	9.51974	9.07873	7.14435	48.60158	77.28048	68.23403
33740	9.75982	6.61861	11.20595	53.13869	49.89176	72.78586	9.63175	11.26570	9.11069	54.78470	61.32297	49.79931	6.30871	10.92934	12.26356	37.38037	34.20740	37.46342
33910	11.15088	9.43657	8.34286	41.48305	45.75144	51.62267	9.58099	7.82633	9.60447	34.53845	45.63703	74.16574	5.82914	3.55525	6.93985	37.70485	55.47446	34.10355
34070	6.39636	8.28454	10.85091	26.86712	28.74691	24.12378	16.01638	14.62107	14.97555	48.58168	49.94201	28.95178	12.43128	7.99019	9.56787	48.44265	48.27018	47.78170
34240	8.76022	5.00276	3.04096	40.66498	45.82333	38.45507	7.06355	7.66947	2.58131	46.52288	59.76298	46.11529	3.45826	3.66383	3.71721	48.85226	46.51953	39.27482
34400	2.86056	3.25789	5.78768	33.93214	48.52890	47.29443	7.87088	11.55659	12.14930	57.13946	54.38880	41.97939	8.92127	9.90922	12.14700	50.26682	72.34583	43.14436
34570	9.40802	12.29147	7.52712	44.29434	33.70494	36.84780	11.17952	10.55310	11.50239	32.54926	46.48510	89.25920	12.75085	12.53240	12.95262	86.40591	69.33304	86.83828	21.48	6.0	0.00	7.25	0.01281	0.01293	0.01701	0.00774	0.00577	0.00632	0.00470	0.01270	0.01696	0.00673	0.00682	0.00900	0.01496	0.01102	0.01203	0.00216	0.00613	0.00864
34730	11.63328	9.56541	11.74575	46.72155	39.12865	57.17082	14.74658	10.61576	10.06076	59.72328	39.40007	68.64497	9.30230	9.69324	11.96210	69.69277	54.83079	67.16120
34900	11.74955	13.57417	8.81621	41.97224	48.50538	27.15101	11.40104	9.08416	8.66419	76.19730	65.46650	77.89484	9.37077	5.89535	7.15299	59.03188	53.35732	50.97063
35060	5.81996	7.47125	6.33554	15.17060	22.22135	31.87291	7.19655	6.89586	7.43069	42.93789	29.18517	36.97398	4.35747	4.15525	6.41606	31.38725	40.14809	52.82453
35230	3.66231	5.47202	4.61404	31.59511	26.85560	28.69484	5.66388	5.54400	2.17573	30.83378	30.85926	26.90576	5.56878	5.51695	5.93142	42.78984	16.68304	15.56219
35390	5.94719	4.37309	5.13726	27.08818	28.27708	17.26802	8.84598	5.53782	9.48812	28.62289	40.42474	39.88417	3.31163	3.19890	1.49577	27.81868	40.30940	45.79427
35550	0.95197	1.24752	1.81072	25.00715	22.92487	22.39309	7.47754	5.71653	5.07348	34.12952	21.62065	19.06636	8.38855	6.34204	5.15229	41.01833	38.48680	33.43123
35720	6.55673	6.19923	6.60928	49.00211	24.85437	30.14653	6.99222	6.26292	8.19645	25.37675	39.75565	23.95499	7.27063	7.22932	6.57629	36.57859	42.49770	56.83849
35880	6.97083	6.62600	6.08846	47.86277	43.85586	35.84637	8.22421	9.93564	9.84148	24.98601	27.50290	24.39303	5.30115	5.93050	3.45036	29.27701	47.37868	38.54876
36050	4.17846	6.08042	5.41738	32.81826	19.95113	11.00018	6.10876	5.01202	7.31116	13.73768	16.33533	27.49968	3.19963	6.58484	3.27927	28.01868	27.29292	20.24431
36220	4.65600	4.26271	4.98974	35.15055	33.80657	32.51824	6.38755	4.40086	3.31508	20.87736	31.36604	26.83467	5.72487	6.17179	7.05940	29.60456	22.16344	12.35052	21.54	6.0	0.00	7.25	0.01281	0.01293	0.01701	0.00774	0.00577	0.00632	0.00470	0.01270	0.01696	0.00673	0.00682	0.00900	0.01496	0.01102	0.01203	0.00216	0.00613	0.00864
36380	7.51104	10.55066	7.35371	43.49097	34.15575	26.30229	10.69383	10.99246	10.34854	22.84489	43.19597	58.76196	6.64662	6.69489	7.60656	40.30511	51.72576	57.71032
36540	6.35913	4.33572	4.85971	30.02279	25.23235	14.49634	5.65449	5.73383	6.41077	23.79359	19.85459	23.06142	7.19352	7.61317	4.24076	15.34482	19.90507	28.21678
36710	6.91132	7.46502	10.09291	32.91905	29.39484	33.67409	10.96283	7.64888	13.80233	29.02032	42.17729	36.56349	16.26080	12.29493	9.49468	98.51865	75.12494	66.61933
36880	8.77099	9.77954	7.48086	57.74767	57.41007	57.92722	14.92410	13.55043	11.65812	51.22115	41.67562	50.08438	9.56667	11.10685	13.83186	68.63301	42.58269	36.25424
37040	8.78305	8.50316	11.95153	38.59791	51.36277	36.33681	14.32588	13.43868	11.63017	37.67483	41.74163	83.63361	11.13874	12.34026	10.50411	47.00226	32.38456	93.25225
37210	8.88440	7.64477	8.77377	48.58734	32.31608	30.64830	7.24092	4.57283	4.12455	30.34222	24.30167	27.47450	4.59255	7.25916	5.98162	24.70363	48.49795	30.91825
37370	5.54646	4.00454	4.14314	45.15664	30.53788	38.93258	3.94734	8.75619	4.45211	33.69901	32.06504	18.77614	7.55134	4.98398	9.50757	58.25238	19.65263	56.01847
37540	9.76249	7.40653	7.81086	43.59618	68.69738	42.27341	13.51722	9.61974	6.95180	33.25413	39.51872	34.31093	5.34146	4.24215	3.17153	43.20453	39.84657	32.24476
37700	3.43712	3.34370	2.75912	40.76786	31.53585	32.29517	3.96708	4.84865	3.75233	32.94317	28.58577	27.48481	4.74740	6.93621	6.39214	30.25010	49.58461	13.20475
37870	7.22999	6.71096	5.37729	27.52665	39.47675	30.31303	4.45536	4.58933	5.17837	30.69242	21.86451	18.89790	6.67850	4.96772	4.36854	22.62224	25.91276	19.45257	21.54	6.1	0.00	7.31	0.01281	0.01293	0.01701	0.00774	0.00577	0.00632	0.00470	0.01270	0.01696	0.00673	0.00682	0.00900	0.01496	0.01102	0.01203	0.00216	0.00613	0.00864
38030	3.95750	3.73016	5.67069	31.27480	17.12298	29.78448	10.78938	2.97094	6.16421	26.57420	25.98069	20.61129	5.02822	7.13667	9.49478	43.06016	43.42881	46.57107
38190	6.26972	11.70423	9.27149	23.20353	27.44251	30.82761	12.94283	11.06123	9.58865	17.37534	21.94989	38.08792	12.20296	7.65612	5.63988	63.19387	17.67898	52.97691
38360	10.41004	7.02126	8.85156	56.73126	66.03563	75.18032	12.84318	10.09276	13.38063	33.23308	40.15121	44.65586	5.39554	5.58677	7.92864	49.51528	61.78937	55.98173
38520	11.15171	12.05145	14.28055	79.58952	73.70666	58.08829	13.74594	11.83489	9.89108	31.10004	34.52809	27.92539	11.98469	4.96257	5.41689	45.03223	37.80583	48.50396
38690	4.92142	2.60493	2.47805	55.77869	35.40033	52.48810	8.27792	5.15134	4.54163	31.07698	48.30738	23.58516	5.24168	5.78880	5.31327	22.60240	21.75785	54.42080
38850	3.89509	4.45361	6.94447	33.58348	44.53875	48.12664	7.50478	4.81271	6.81758	36.09658	40.40973	33.49513	4.52701	7.17254	8.44828	32.82949	48.82811	43.74584
39020	9.02676	9.75087	6.81159	24.12254	23.98205	17.43626	11.10951	11.09078	10.83438	82.25666	74.91761	58.13090	11.60559	7.34327	9.99782	46.49987	55.83056	37.17955
39180	7.88689	6.50102	3.38657	29.03455	17.34636	13.72085	8.62722	7.06178	6.18709	26.02868	43.65443	36.61468	7.06423	5.91523	5.88641	42.48068	61.93545	46.13493
39350	4.74019	7.50117	6.14949	48.52402	42.45796	27.77983	7.58239	7.69327	8.42021	33.79798	33.76797	36.61503	6.55199	7.60424	5.52404	18.23202	36.29925	33.40988
39520	5.08682	3.55297	6.23761	16.03252	32.79571	48.53784	10.61316	10.36754	10.94001	22.78643	24.60153	20.81323	7.48717	9.22710	11.74929	57.84390	53.30306	67.68894	21.54	6.0	0.00	7.30	0.01281	0.01293	0.01701	0.00774	0.00577	0.00632	0.00470	0.01270	0.01696	0.00673	0.00682	0.00900	0.01496	0.01102	0.01203	0.00216	0.00613	0.00864
39680	7.45395	6.31549	3.77400	42.54997	36.45235	35.40689	8.97864	5.90887	4.13899	56.58348	29.96498	23.73642	3.70550	5.62937	4.40655	43.29592	29.13650	45.80415
39840	3.13748	4.81181	3.68020	18.20617	27.83304	36.44323	6.90788	4.69012	7.07072	54.95288	56.70412	27.44143	5.53976	5.34505	8.84097	28.18815	50.40265	47.47014
40010	6.42874	5.44729	7.13371	14.99009	25.68827	30.32485	8.15061	4.29945	5.07495	19.97995	33.66299	28.03356	4.48239	3.87604	5.56932	49.89618	42.34847	48.25113
40170	2.98397	4.79550	5.14550	47.00733	35.14089	24.64762	7.28788	9.75200	6.52546	30.64259	29.19535	26.36840	4.96948	5.77217	6.69276	24.10791	20.85298	18.73871
40340	6.55003	7.36039	6.71502	25.59547	25.81251	16.58556	6.06222	7.63129	6.36665	38.29776	18.77753	19.92956	3.24373	5.19698	4.33311	35.09319	19.77443	22.64177
40500	2.43976	3.45283	3.01407	17.24699	16.21919	20.18661	4.81356	4.56122	3.11185	13.87474	16.11477	11.37581	2.76197	2.12723	1.49100	7.76276	16.52319	10.65039
40670	2.01992	3.39859	2.99994	15.52361	10.31762	11.32487	4.79153	5.63106	5.15267	12.88269	13.96469	24.95175	3.70820	3.12415	3.93185	17.50626	26.02608	24.81025
40830	5.84055	7.03853	4.96672	20.54705	21.70545	33.34211	10.71835	10.64115	9.58991	38.03157	40.78600	45.04307	8.63118	8.85499	4.35575	31.01344	49.50348	32.29959
41000	8.55909	11.70800	10.62933	49.81936	50.48110	30.98197	14.28040	11.53081	14.42873	22.49429	22.07304	29.57994	10.56790	9.89792	10.70917	64.04478	26.76840	38.90788
41160	4.08335	6.51209	6.55336	29.72512	23.78062	23.96902	6.43190	8.80410	6.78621	15.06003	16.58088	24.62981	4.59318	6.22393	6.15171	49.84716	38.23511	44.08614	21.54	6.1	0.00	7.28	0.01281	0.01293	0.01701	0.00774	0.00577	0.00632	0.00470	0.01270	0.01696	0.00673	0.00681	0.00900	0.01496	0.01102	0.01203	0.00216	0.00613	0.00864
41330	5.14995	2.56602	2.67607	49.76060	39.34717	35.88478	5.73035	4.35144	4.97051	82.73630	34.46741	22.79958	4.26563	5.50089	7.29465	36.68691	47.85309	44.35152
41490	5.76807	3.72218	1.76786	39.79519	22.61139	30.00637	5.45845	8.55322	9.26287	52.70526	34.79913	38.22329	8.34608	10.38761	11.93439	29.61859	40.87168	22.42946
41660	14.72832	11.99472	12.81795	56.88105	76.60513	39.21901	14.39067	16.60350	14.14489	42.70463	56.84350	28.71412	11.63672	10.63769	9.85933	59.05136	49.35426	35.29601
41820	9.85606	7.00038	6.47030	59.41958	29.60836	34.32542	12.86563	11.48407	8.10294	40.84247	45.17673	30.15623	11.53870	9.21716	7.50349	36.68101	17.71715	21.93322
41980	7.82370	6.05475	5.41634	36.91007	32.45869	25.55804	8.64876	6.55418	4.41192	46.16412	28.36024	41.51331	5.85432	7.37362	5.46657	56.88913	29.00831	18.19105
42150	7.22808	5.77289	7.24750	46.84685	49.35700	46.31659	11.95396	10.16413	9.16116	31.31756	23.79705	44.74816	7.93871	6.49647	7.89949	53.56417	40.87869	36.97104
42310	7.32465	8.05420	6.57245	31.11552	31.40677	25.82978	11.90998	9.61970	11.17836	65.70105	71.49883	74.37679	12.92506	12.93878	13.61172	54.90973	45.58418	50.18951
42470	9.28115	7.71029	5.22271	66.72787	47.11735	32.75099	5.63441	8.39119	8.09210	35.97370	17.70688	35.33428	4.36110	3.75714	3.18878	42.13641	51.76638	17.88694
42640	3.60658	6.12417	6.78677	15.66338	17.31220	18.45587	12.43129	7.06043	2.74719	31.90667	29.79984	29.16174	2.71298	3.20791	2.96205	18.87995	17.28503	28.50637
42800	5.93880	5.12183	3.50569	28.14401	36.95029	35.53677	5.03658	4.71159	5.00259	30.49408	22.59576	17.29770	5.84241	5.58021	4.74125	28.48762	17.90009	25.45958	21.54	6.1	0.00	7.31	0.01281	0.01293	0.01701	0.00774	0.00577	0.00632	0.00470	0.01270	0.01696	0.00673	0.00682	0.00900	0.01496	0.01102	0.01203	0.00216	0.00613	0.00864
42970	5.01024	4.74765	7.58355	18.25148	48.82338	18.11461	9.85526	7.44590	7.65230	25.99620	21.89903	30.31732	7.67158	9.44661	10.01493	35.25743	26.60065	31.03276
43130	6.69400	8.77349	8.97517	15.59542	34.64790	23.10911	9.64503	7.04905	10.26743	44.84613	56.83182	46.22741	6.54160	7.56816	6.79413	31.40412	28.94249	36.09227
43300	3.19155	5.97577	9.26007	40.64835	20.45029	29.34712	10.55301	13.76495	10.02915	37.66279	30.56869	25.36077	7.00961	10.72457	8.39152	27.55348	30.96810	32.05648
43460	4.33514	7.47426	9.69151	54.23906	60.16650	51.19778	13.32104	11.71634	10.79621	77.80957	54.52973	57.82749	8.53892	6.28056	6.28476	88.27388	81.45366	46.78084
43630	7.84553	6.10543	5.88554	31.66097	36.43590	28.65692	13.11710	9.38613	7.80131	42.91532	50.55469	41.19361	7.96997	7.65163	8.42693	36.12591	40.39972	55.04486
43790	11.54657	12.27189	10.76423	60.97041	47.46883	46.82886	8.37704	10.69757	8.67213	60.10426	24.17081	38.93395	7.86457	7.42950	11.81099	69.57560	55.81110	63.01568
43960	9.51598	8.94988	14.33895	93.48039	32.39254	49.36375	9.53847	8.40353	9.58518	70.21561	34.58122	49.77118	4.31005	8.11293	9.13790	44.21294	38.99061	37.05119
44120	7.00035	7.17879	8.18770	35.33668	18.30405	16.44751	7.16044	4.89394	5.37100	24.42498	23.54624	37.56054	3.82511	3.39233	5.11907	24.33797	17.56366	21.67133
44290	1.55825	1.68844	2.83418	20.77654	30.28740	23.95944	7.34451	4.10028	5.72030	22.54642	27.08848	25.89314	5.58263	3.22200	3.46904	24.93972	13.16176	16.26062
44450	3.86179	4.56375	3.45591	16.59449	20.35610	23.91786	4.84054	2.65724	3.11216	19.20746	10.41607	20.17576	5.14339	9.43936	10.80795	18.62327	26.34991	31.21559	21.54	6.1	0.00	7.32	0.01281	0.01293	0.01701	0.00774	0.00577	0.00632	0.00470	0.01270	0.01696	0.00673	0.00682	0.00900	0.01496	0.01102	0.01203	0.00216	0.00613	0.00864
44620	9.20029	9.44051	11.02501	33.74864	23.64040	21.27443	9.92088	8.09212	7.19635	37.51318	45.26474	42.67261	11.07594	11.48250	9.65331	56.43302	44.91719	33.70737
44780	11.00868	12.40825	13.21888	44.59701	80.07633	33.19057	18.38671	15.64898	15.13325	51.51249	69.28926	52.68530	20.22858	15.87528	16.55803	88.80390	54.57763	31.86313
44950	15.92176	17.21853	17.15990	70.17231	53.95727	69.70989	19.93448	15.91106	17.78374	99.91887	84.15808	98.38512	13.28512	17.73272	14.95656	87.53638	73.01752	58.15958
45110	12.06147	13.80353	13.71168	81.97284	74.95196	70.53080	19.02872	16.72640	14.89106	40.30881	30.62546	80.75408	19.13091	18.80142	14.91128	63.57910	128.54712	41.84403
45280	13.54508	10.41943	6.00925	73.77905	56.28610	43.65719	7.21980	4.59615	4.28177	72.41416	35.44901	81.66656	5.47200	7.50180	4.60150	79.69519	51.41821	58.71251
45440	7.66188	8.89797	9.56109	32.06678	24.22380	55.18462	15.98911	11.20903	12.77660	34.82000	42.31861	47.15254	12.70690	9.50020	7.31640	52.77539	74.05821	56.43710
45610	5.50203	4.83400	3.77817	45.69893	47.29272	46.44783	10.93050	7.02732	8.92073	51.78078	39.45712	47.55740	4.95069	6.10810	5.59285	67.87525	91.29018	50.07078
45770	9.21134	7.38831	7.94783	48.28109	59.51134	27.86103	10.67834	7.71884	9.95690	38.54268	43.15309	31.61002	10.69352	11.38197	8.53486	50.87028	48.06083	30.64017
45940	5.58647	4.90415	8.92568	31.27237	45.65098	20.69771	10.95836	6.00339	6.86348	35.96542	31.06807	31.64400	3.32569	5.16332	5.57725	44.52473	39.78027	24.75102
46100	7.79220	6.57294	5.52381	30.19508	27.24694	19.76883	5.77138	3.15611	5.04772	28.10266	23.82217	25.81430	3.87249	7.00819	5.19345	49.78218	29.92321	50.88744	21.60	6.1	0.00	7.30	0.01281	0.01293	0.01701	0.00774	0.00577	0.00632	0.00470	0.01270	0.01696	0.00673	0.00682	0.00899	0.01496	0.01102	0.01203	0.00216	0.00613	0.00864
46270	5.61677	6.30273	6.64527	39.03455	25.70643	20.51677	11.01968	9.55182	9.35475	14.67417	33.10269	20.73568	11.07124	11.14343	11.64992	42.65611	45.38959	26.53848
46430	10.37006	10.53065	10.21619	28.44598	30.06429	22.25665	11.61304	7.21387	5.60363	30.32516	21.36165	15.57293	8.12799	6.49250	3.53096	27.36278	20.25404	31.27615
46600	1.37743	4.59869	1.99108	27.56560	10.21254	12.78165	5.99554	4.34610	1.86001	20.71446	16.24909	17.17419	5.16957	3.34616	4.10146	20.64201	22.19441	13.34261
46760	2.87707	4.62741	5.07524	21.89206	12.33250	8.18110	5.15226	4.64559	2.89841	9.58416	9.22095	11.68703	6.85402	6.68118	3.38778	9.84977	10.79485	11.34881
46930	6.67317	4.80218	4.83040	12.95796	24.82285	17.03837	5.31955	4.34216	6.70241	24.25081	21.59764	26.95145	7.41746	6.00296	6.15847	43.27156	32.66830	30.98035
47090	5.79534	9.35476	8.15276	35.48132	51.68640	29.93167	7.88728	8.02099	7.07559	48.65774	34.47198	31.59316	11.62699	10.60267	11.73724	35.01563	24.78862	41.98105
47260	7.37093	11.46023	9.93513	52.69938	32.37939	33.46143	8.76881	9.77268	11.86272	50.54472	72.40813	93.10728	11.39374	14.58523	14.73445	73.49718	52.95349	56.99907
47420	14.10107	13.93190	13.32411	64.94766	72.48081	51.77340	23.68005	18.13545	15.60984	38.72402	20.89052	20.31830	13.76553	13.19011	14.17158	43.64272	52.72164	46.63086
47590	9.90242	5.80550	7.67681	35.54206	25.69275	36.35146	7.72536	5.38528	4.27166	39.61435	44.21634	32.98236	3.20461	3.08785	4.32489	20.18158	15.61714	13.68791
47750	4.68555	5.57604	6.36486	28.66853	21.53542	32.02390	7.78560	9.30484	4.60192	19.85732	23.90441	26.40077	4.50356	4.03993	6.10268	56.49537	66.25107	38.52475	21.67	6.2	0.00	7.24	0.01281	0.01293	0.01701	0.00774	0.00577	0.00632	0.00470	0.01270	0.01696	0.00673	0.00682	0.00899	0.01496	0.01102	0.01203	0.00216	0.00613	0.00864
47920	6.93361	4.65837	3.15133	43.96759	12.93379	17.52949	5.49412	6.74018	6.67835	24.61671	15.79548	17.09042	6.97240	7.38279	4.92049	17.07126	32.42404	29.38725
48080	4.03741	6.96296	5.40103	24.08454	31.79103	25.70103	7.27140	4.25194	6.09406	45.66318	54.25849	38.77182	6.57049	6.47655	9.44493	12.55497	12.17886	12.38755
48250	5.96575	8.73665	4.49296	23.27328	38.28182	30.33885	8.01476	6.55441	6.37675	16.22713	26.93544	23.27422	5.06134	6.46794	4.86777	33.06027	46.94228	29.02373
48410	5.72114	3.84687	6.09062	51.06468	32.12519	39.67090	7.31002	4.60110	4.49548	49.02416	35.57738	22.78123	4.43968	3.71754	4.83312	31.20481	33.49096	27.90077
48570	2.27271	2.24861	4.48859	30.82523	27.05040	20.98730	4.85348	7.47318	5.03649	23.34354	15.59695	43.24455	8.82808	7.91284	8.50515	73.15003	55.49751	54.29399
48740	8.25507	7.59660	4.01190	19.16668	43.98252	50.34040	6.89608	7.44380	3.20294	32.28141	27.51590	33.64132	3.48713	5.16450	7.06586	29.97967	39.23580	33.21017
48900	10.18553	9.30888	8.94245	49.64867	26.44025	21.48668	14.86333	12.38362	5.67809	41.09640	25.99894	31.26416	10.61174	11.60056	8.64792	19.46627	23.71179	26.15183
49060	6.53421	5.36236	6.75524	32.33979	25.96357	19.84025	11.28612	9.23779	6.22770	25.28775	29.47707	43.52862	6.92053	8.48384	7.88889	72.02886	44.49124	42.73461
49230	5.38243	6.55272	4.88396	34.77545	33.59884	21.94035	6.46968	7.40356	6.06970	28.89682	23.95608	30.83462	5.78200	4.46366	3.67606	36.39060	22.87900	17.49979
49390	1.93091	2.47633	3.51528	14.70381	21.09618	18.17534	6.43561	2.75205	4.21600	17.64302	15.89848	25.48507	5.97190	5.55433	7.87431	31.15069	17.35996	30.50623	21.67	6.0	0.00	7.24	0.01281	0.01293	0.01700	0.00774	0.00577	0.00632	0.00470	0.01270	0.01696	0.00673	0.00682	0.00899	0.01496	0.01102	0.01202	0.00216	0.00613	0.00864
49560	8.28492	4.59171	4.22774	19.80025	21.40237	16.22911	9.02934	6.27205	2.33649	25.06434	37.01625	14.31299	11.86942	5.77612	9.08334	36.11094	30.11710	48.66244
49720	8.45572	8.10210	7.53486	23.33382	41.35144	48.63402	11.49179	6.75501	5.04616	26.53170	44.48186	33.41170	5.06609	5.36092	2.49264	23.06929	14.34755	18.47169
49890	4.76827	4.45105	6.96840	20.49075	16.26139	25.79492	4.69966	4.33455	2.95987	26.21886	21.13008	23.31255	4.15756	3.52863	3.47323	29.99585	16.99416	19.14019
50050	6.36980	5.43304	6.90010	11.50477	20.28581	22.52007	9.65334	10.07660	9.34027	18.07593	19.77632	41.23228	9.62757	8.44212	8.60443	34.26179	40.75141	37.44931
50220	8.48150	6.78197	5.55819	30.42309	16.49335	29.59723	6.86657	6.69138	3.94191	14.10308	34.27416	27.38080	8.59229	8.41210	6.50677	41.04178	65.60202	76.19262
50380	11.15656	12.76588	9.70521	39.03225	48.29382	52.05797	13.27575	13.67361	12.11472	80.56774	50.63541	20.08571	12.81298	11.03326	12.28036	75.93423	56.80587	74.41538
50550	13.87387	13.89454	14.51173	44.25565	54.14049	56.63709	21.84330	14.82789	18.06189	59.67900	79.77153	55.34925	16.24993	16.85955	18.10196	81.21815	87.35508	83.67088
50710	15.39177	13.54673	10.38683	66.57959	34.24487	46.05530	9.34866	9.14821	6.00536	34.89909	45.38114	36.76881	6.97410	4.34052	5.92959	42.48770	33.16989	36.42276
50880	8.24796	5.55591	7.80628	15.78009	26.65604	39.44946	9.05485	8.02508	4.08553	23.22930	30.63169	33.68474	5.69181	2.96039	5.21541	58.83262	34.83447	44.42968
51040	5.89015	5.66628	6.03770	43.87723	35.79442	28.66364	7.61119	3.56931	4.87717	24.60145	17.28302	10.46098	5.70549	4.53007	4.37597	25.31939	35.77709	56.05302	21.67	6.0	0.00	7.29	0.01281	0.01293	0.01700	0.00774	0.00577	0.00632	0.00470	0.01270	0.01696	0.00673	0.00682	0.00900	0.01496	0.01102	0.01202	0.00216	0.00613	0.00864
51210	3.67423	7.77058	4.12024	37.10946	20.84165	26.82966	3.41800	5.71846	3.44470	18.39742	31.84542	32.50845	5.08748	4.04756	4.05658	50.91369	33.16159	23.24103
51370	4.81581	4.12111	2.65066	27.70452	18.20635	24.44679	3.66644	3.85963	2.51086	33.06207	16.97857	24.15973	2.48725	4.20176	3.52318	16.56277	25.92171	23.34652
51540	1.98618	1.56739	3.20584	10.31329	10.91963	8.73703	5.03028	5.64140	7.22282	10.98672	3.55364	6.54488	3.47835	5.05988	3.33218	8.44141	11.00592	10.85274
51700	2.17581	2.96764	2.80645	14.27932	21.97320	20.68919	7.18505	7.04680	3.44896	17.46803	15.52233	16.73573	3.06380	4.55377	4.81192	28.73762	29.23151	38.56496
51870	4.57620	4.48201	4.92976	14.95406	16.20705	13.69549	6.64331	9.64975	10.79224	28.52807	38.14272	37.54452	8.23855	8.63780	10.47480	36.92161	44.67542	29.17823
52030	5.92195	6.70319	3.71508	26.36459	28.49873	36.32666	10.73043	9.69165	8.91983	37.49980	12.65646	17.11770	8.25428	7.16613	6.78844	36.94882	33.05090	14.11259
52200	6.40799	4.23504	4.87653	40.88186	39.58398	23.96856	6.12223	5.73439	3.35374	36.98169	35.15542	40.60993	4.02094	2.39226	2.99352	32.42264	27.33464	30.98612
52360	2.26599	3.62087	3.71440	15.05636	21.88105	24.11845	5.99998	6.20991	7.98845	22.18275	34.18247	30.73273	7.95241	7.69334	8.21053	32.83832	52.21029	20.92846
52530	6.68097	6.10092	7.71644	40.83301	20.30174	62.23500	16.22358	13.54851	8.88155	88.52477	47.94375	83.55344	12.86234	10.18286	8.88513	87.06577	124.48934	102.56327
52690	9.57453	11.19759	12.74410	88.72108	103.85009	62.33798	14.39513	13.53625	10.57855	50.52200	72.84486	81.10818	13.81156	12.75858	12.73836	60.94926	83.54424	62.72511	21.67	6.1	0.00	7.25	0.01281	0.01293	0.01700	0.00774	0.00577	0.00632	0.00470	0.01270	0.01696	0.00673	0.00682	0.00899	0.01496	0.01102	0.01202	0.00216	0.00613	0.00863
52850	11.30291	9.56333	9.06278	33.87785	79.48349	35.28514	10.19848	8.75290	7.82618	44.85935	26.12439	22.68496	10.41389	9.77131	6.13611	72.22330	89.62414	93.76525
53020	5.99388	9.74546	10.74805	92.49402	78.10076	66.63677	15.53977	15.09643	10.67081	75.91711	44.71554	41.35650	8.50878	8.19857	6.77992	29.04498	28.10724	45.73726
53180	8.94094	11.93633	9.72949	14.53717	36.78785	27.93229	11.93139	14.73384	13.90843	93.63268	94.98923	63.73209	9.22619	12.30887	8.08648	32.30106	26.58711	95.76015
53350	10.84790	8.96971	5.24114	19.41585	28.82247	64.36738	6.79307	8.59481	5.42709	72.72227	51.52483	46.38515	5.24608	5.70501	5.16234	39.82439	35.58955	29.65948
53520	5.56795	7.84035	6.37015	30.13726	34.80171	42.76817	6.64941	5.61811	4.19837	23.62350	19.99898	32.63316	9.73433	6.66256	8.33327	29.61030	38.35659	37.12789
53680	7.61843	8.46113	6.99322	46.67628	35.42465	23.33594	7.44992	8.32049	10.44384	24.61812	30.78928	35.39092	5.17510	4.92397	4.08406	22.28572	29.77809	30.59380
53850	4.76544	2.69893	3.40078	22.99605	23.46357	36.75722	6.21812	5.95189	4.13363	23.12267	22.23080	39.28216	2.88743	2.53349	2.45402	29.56244	36.02752	25.37972
54010	5.28467	6.12423	6.10758	25.82008	28.26515	26.11512	7.33724	7.22270	5.44466	27.87560	30.72384	22.31244	7.60653	4.70723	6.39818	34.57421	38.43320	55.52985
54180	3.25568	2.68624	2.31552	33.18346	27.11584	20.35058	4.48910	3.52838	3.16472	16.76579	24.93970	14.82478	3.15668	4.40270	3.17747	15.82307	26.12205	17.50344
54340	3.46474	1.56605	2.31527	20.23562	18.11304	14.12689	3.86462	4.14558	7.36011	21.34706	18.93716	24.30355	3.59569	5.57562	4.04362	13.74776	17.94386	22.16217	21.73	6.1	0.00	7.27	0.01281	0.01293	0.01700	0.00774	0.00577	0.00632	0.00470	0.01270	0.01695	0.00673	0.00682	0.00899	0.01495	0.01102	0.01202	0.00216	0.00613	0.00864
54510	6.93387	4.32015	3.87057	14.52376	14.43402	14.10598	7.14499	5.80752	3.90353	18.50899	17.01085	19.65298	3.26543	2.09531	3.62453	34.30678	22.97531	16.90959
54670	2.45413	2.80822	3.20034	23.67338	19.89523	24.11753	4.49185	5.27510	7.55924	16.94718	24.68412	27.04827	6.21455	9.20792	7.40220	44.93101	42.64435	51.37378
54840	8.53324	9.40556	8.83714	71.54477	37.11752	30.06962	9.39788	5.87644	4.70209	31.72327	37.45069	19.56056	3.96264	1.82917	4.10916	23.84530	15.94036	7.26334
55000	3.71731	4.66932	5.58845	13.53366	19.22083	17.71780	7.57956	5.50030	5.92366	24.76317	14.74319	14.43380	7.76353	6.63076	6.97914	17.70072	29.68192	16.40355
55170	7.67255	11.29063	8.70394	21.29315	34.65108	22.19427	12.43758	11.43659	11.09897	22.52047	26.69482	36.86171	12.04714	12.69425	11.01426	72.80941	31.51756	32.98600
55330	9.18323	7.34316	10.81778	74.31955	93.77409	74.48584	14.82517	12.06571	9.51386	94.18106	60.37792	56.59408	12.26530	10.08078	9.99223	67.31526	48.36097	35.38488
55500	10.68281	8.75297	10.99146	68.43980	27.55623	39.45720	12.07911	8.84155	8.41374	43.20905	46.32302	58.99437	6.98554	5.23710	6.20429	71.29135	85.10423	56.66627
55660	3.03773	6.68402	6.07833	23.40960	24.56237	28.54432	15.73597	10.28877	10.42451	60.54703	32.41894	25.43737	10.61674	11.02470	10.04419	38.21716	57.48032	23.31775
55830	5.59262	9.02337	4.33326	32.47492	27.23953	21.99872	5.12073	3.81152	4.29439	17.61522	29.09041	39.75839	7.75519	4.28869	3.62727	35.27523	42.06884	47.99110
55990	6.19868	5.94130	6.00226	20.11799	31.97956	37.22360	6.30169	4.52453	3.17684	30.14468	47.56397	51.70797	4.99973	4.94028	3.60848	30.68200	32.08354	33.76394	21.80	6.1	0.00	7.34	0.01281	0.01292	0.01700	0.00774	0.00577	0.00632	0.00470	0.01270	0.01695	0.00673	0.00682	0.00899	0.01495	0.01102	0.01202	0.00216	0.00613	0.00863
56150	5.94885	5.38692	3.98761	15.29850	11.89891	21.94198	8.83477	4.79416	3.54057	33.03014	21.42704	28.33723	5.00983	4.61055	5.45138	24.30994	30.40300	28.27110
56320	1.25672	2.18931	3.42093	32.87193	26.20377	12.87797	5.07334	2.20729	1.56716	28.78110	36.78299	21.63717	3.08943	2.97643	3.94091	20.18410	16.16299	9.28629
56480	5.28903	3.65043	2.48898	16.21688	8.82984	9.53748	4.49360	4.70618	3.53682	23.12694	15.39223	20.99800	4.20786	5.46073	3.35507	26.97890	18.97250	16.78744
56650	2.69634	3.44818	2.86514	27.43995	23.95593	17.62013	5.33263	6.17168	4.27291	23.83901	16.90558	29.80054	7.88221	8.53078	6.13508	69.49238	37.78120	36.67289
56810	7.31012	6.52522	8.45713	38.43308	21.56907	26.92461	8.90147	13.03614	10.08941	52.95527	45.05037	48.32870	9.59899	7.68844	6.87633	32.15591	81.40276	72.19081
56980	6.56862	6.43600	11.15068	42.41761	64.67926	87.78304	18.58886	16.38173	15.89611	101.84052	52.86439	41.16977	14.98047	16.62874	12.52888	68.03526	63.06081	88.07825
57140	20.52963	16.58296	19.05811	47.43365	47.17373	44.69462	24.55394	20.60455	16.49717	80.21077	71.43988	52.43803	16.13427	18.37659	14.79655	84.83168	76.47550	72.55403
57300	9.92227	13.23238	15.47133	69.55188	53.51878	87.94178	15.47218	11.33465	13.06426	70.72559	73.58269	61.39489	11.03367	7.74669	10.47019	52.61388	50.39094	48.80498
57470	7.41334	6.38552	6.16426	53.22494	49.97472	18.73712	11.18378	6.30406	6.68105	57.01220	49.23302	33.87784	7.19456	6.14226	3.27941	37.69225	20.37798	26.01273
57630	3.48846	6.32664	6.03871	42.21100	27.15932	29.05228	8.69431	6.45253	6.82127	25.27267	20.27181	13.15780	4.19498	5.40993	4.90431	19.35911	38.38817	32.84006	21.67	6.2	0.00	7.33	0.01281	0.01292	0.01700	0.00774	0.00577	0.00632	0.00470	0.01270	0.01695	0.00673	0.00682	0.00900	0.01495	0.01102	0.01202	0.00216	0.00613	0.00864
57800	7.64595	6.95167	4.32942	39.63107	45.69975	24.08858	8.57442	5.33930	2.27237	14.77872	13.26205	19.36273	3.24180	2.77135	1.84376	10.29692	15.02378	19.72767
57960	1.93905	3.12492	2.56813	23.01638	32.05239	16.29889	4.23606	5.26681	5.61885	30.28379	22.84304	16.22769	6.37376	7.12901	10.78528	14.64845	13.01547	32.36567
58120	3.66570	4.84727	4.40691	35.16050	26.69419	26.46753	5.56110	3.10760	3.12523	14.19864	11.80545	23.13559	2.46184	2.20014	2.24745	10.42061	12.74419	26.28718
58290	3.08162	3.39877	1.42525	16.70545	16.42701	9.46143	7.74772	4.04214	4.25025	24.74149	15.51407	8.37753	4.51028	3.00295	2.33663	18.76228	15.45692	13.34996
58450	3.24312	2.99885	3.47841	28.89941	10.63230	12.51199	7.88109	5.64082	4.02262	19.49050	18.54481	23.13130	2.89856	5.81481	3.73021	15.36582	15.06020	13.46805
58620	2.38746	2.21782	4.87002	19.26750	15.03011	20.54918	5.94383	3.52775	4.87623	18.27053	8.87421	6.26230	5.13204	4.98303	3.10920	13.50174	19.75485	24.08868
58780	2.81831	5.97129	4.53606	15.95935	29.64512	12.21139	10.97550	7.46804	5.06301	24.62882	9.98384	10.79998	5.75945	3.64331	4.87885	19.76344	25.43135	36.89447
58950	1.16234	1.31829	2.07282	11.89063	18.89334	21.83642	3.23005	3.52924	4.62127	16.66221	12.40582	10.18931	4.87515	2.10888	1.49273	11.78963	15.91995	13.69093
59110	4.16561	2.92876	2.68605	16.50927	14.84766	9.91499	5.73412	4.93789	3.73910	11.65313	12.74198	12.34834	2.80354	3.15012	2.59366	20.48574	6.92996	10.51676
59280	3.30940	3.98311	4.17582	14.45173	15.70985	29.74633	5.76195	10.47054	8.37284	37.23780	36.73457	48.46474	13.21308	14.90197	13.49471	70.48018	62.38266	55.21764	21.67	6.0	0.00	7.65	0.01281	0.01293	0.01700	0.00773	0.00577	0.00632	0.00470	0.01270	0.01695	0.00673	0.00682	0.00899	0.01495	0.01102	0.01202	0.00216	0.00613	0.00863
59440	15.45426	14.11382	13.92619	48.07969	37.07304	39.41640	13.32115	9.55555	7.67617	79.83715	78.58233	42.85461	7.41959	6.72683	6.76272	46.81301	21.30293	50.44017
59610	6.04971	3.57907	3.23084	36.99709	35.94470	24.30990	8.90115	7.04912	6.02882	40.65937	43.77086	47.77197	8.87257	11.19906	11.27039	56.86931	32.02162	33.13163
59770	7.00705	11.08827	8.76397	32.99144	39.17320	35.67435	14.52373	11.61324	10.55191	43.54376	51.10573	59.95017	8.97793	7.53843	5.36775	51.84576	59.50584	70.60108
59940	9.49835	7.24206	7.50713	46.66006	71.96289	25.85999	6.69001	4.82960	5.37484	25.44484	29.02555	31.79169	6.48019	7.11236	6.05235	22.34990	37.76437	52.81021
60100	6.79601	2.95052	3.34603	47.11867	32.60465	49.59806	8.11902	6.07652	3.68290	23.85666	29.45088	35.88412	4.85864	3.47758	4.97261	29.31766	12.61592	26.17272
60270	3.96107	2.02145	1.68520	26.76377	25.89024	11.37981	8.56551	6.93149	3.42085	22.83193	33.73349	28.98133	5.84735	5.67144	5.01104	24.75541	25.20068	28.15624
60430	6.76138	6.44408	6.66108	26.19536	23.97496	14.92925	8.47595	11.47922	9.56856	21.03632	27.47121	27.22914	10.55920	7.65394	7.00715	44.67539	29.28373	27.64373
60600	9.51717	5.78796	7.20609	52.60094	53.22834	45.34311	8.16390	5.06457	3.29981	54.42008	33.55229	26.52838	8.01361	8.91196	6.87926	38.01477	27.97329	51.08965
60760	5.11390	4.34470	5.09771	38.24918	25.71615	26.94820	10.23490	10.08558	5.48902	58.14087	45.37785	41.85860	11.35947	14.94979	11.49954	38.60986	58.61316	65.06356
60930	12.90547	11.13992	12.57202	41.09663	44.24412	81.67002	15.32793	16.48878	17.39066	80.89578	87.44451	35.28858	14.57061	15.79713	11.86018	29.67019	33.59771	29.86294	21.73	5.9	0.00	6.36	0.01281	0.01293	0.01700	0.00773	0.00577	0.00632	0.00470	0.01270	0.01695	0.00673	0.00681	0.00899	0.01495	0.01102	0.01202	0.00216	0.00613	0.00863
61090	7.47153	4.28116	5.36912	49.54238	35.01975	29.80093	9.23739	11.42821	6.68425	34.49357	20.62443	58.31074	9.51506	9.83832	6.98411	44.59389	34.19756	36.43238
61260	4.85261	9.28563	6.51552	56.26302	38.85229	19.71437	8.87645	10.54743	9.32339	24.19259	21.45551	41.50779	6.52193	2.99096	5.28680	37.91777	30.12959	53.72687
61420	5.70679	6.94445	8.16837	56.04293	32.17037	28.88821	8.59708	6.79477	2.97755	17.46602	29.11146	57.32239	4.82642	3.71359	6.94598	51.61031	53.27751	39.44570
61590	5.61728	6.38802	7.61616	40.70165	49.20697	57.79651	14.21684	9.23523	4.39699	20.62928	45.33304	54.81172	10.91630	8.58084	6.48662	73.19640	75.99311	51.84751
61750	6.93806	5.62347	4.66048	40.65073	17.27929	36.41272	10.46470	7.10000	5.80650	34.51088	54.13823	45.83166	7.00581	7.02657	10.11967	34.41832	36.95047	41.16795
61910	8.50127	7.64591	6.92607	32.38625	49.99390	25.90518	7.19729	5.97741	5.82575	16.92380	23.87590	26.85485	3.41744	6.25188	5.41001	38.15756	30.09878	39.54392
62080	5.54630	4.31495	5.13815	34.19910	57.40272	56.38542	8.15787	6.97820	9.29765	43.98369	34.50112	25.87259	7.90319	6.62199	5.99268	18.25574	19.55637	32.62162
62240	5.14229	3.83537	2.45053	27.23689	23.17169	25.75728	5.13845	8.70485	5.60667	20.42126	26.05168	18.99901	2.81159	2.33359	1.90283	23.53979	21.38504	20.71200
62410	2.13782	2.64050	3.88283	25.45184	17.34916	15.77775	4.60902	3.85862	3.72827	14.36729	17.38995	24.14085	5.29339	3.75062	3.43009	11.09976	16.63499	26.77664
62570	6.05876	5.36397	3.74141	8.64588	15.53188	23.78561	4.61070	3.98470	3.67568	24.39013	29.16162	23.08659	4.24887	7.22307	5.54927	13.97845	14.63752	19.53413	21.73	6.3	0.00	7.30	0.01281	0.01292	0.01700	0.00773	0.00577	0.00632	0.00470	0.01270	0.01695	0.00673	0.00681	0.00899	0.01495	0.01102	0.01202	0.00216	0.00613	0.00863
62730	6.02706	3.02537	2.75365	12.91612	16.86211	10.52383	5.67238	5.10643	5.91807	11.41627	16.19107	13.50263	2.40077	3.96486	3.29968	10.04617	13.33175	8.21050
62900	6.96660	4.67576	5.71327	15.06446	15.26958	16.96206	9.89257	4.54314	6.30620	14.59965	13.57478	15.89776	5.49609	2.80909	5.51271	21.24913	13.71229	10.64241
63060	4.09506	5.49407	2.00895	16.94665	18.29375	17.89595	9.81260	2.98242	1.94163	12.47206	7.84249	17.52287	3.16739	5.37742	2.20607	7.05353	8.82873	11.54346
63230	6.11521	2.89679	3.68450	21.15646	23.86847	18.36157	3.96111	3.26400	5.66507	17.70375	20.47556	22.68744	3.90548	5.61260	6.27902	16.71475	21.97549	47.50100
63390	5.58844	6.89060	5.82139	29.21828	30.63620	52.44020	5.83166	8.44413	5.12415	23.47270	37.14992	40.75282	5.31284	9.68650	8.15617	30.65464	35.32743	20.99673
63550	5.24697	4.06560	7.92880	15.12761	25.25472	23.08170	6.26613	7.90855	7.55484	32.95873	43.00251	90.10182	9.12125	4.06141	5.70321	84.30150	47.55320	71.01892
63720	6.28363	6.72667	10.52164	86.89684	65.38713	58.34384	11.01748	16.80706	15.34099	41.53994	49.63027	61.58834	14.57815	13.29675	15.27179	49.10914	44.47894	52.23882
63880	15.48219	11.61760	10.31852	68.80225	51.17519	52.06578	10.40855	9.27149	12.22339	72.63726	56.64758	71.73756	13.59396	10.25516	13.98998	46.62953	36.63823	30.31651
64050	6.90507	12.22952	9.84704	40.91263	24.08543	28.33006	14.41337	12.04600	6.73101	29.76203	31.44127	42.93736	7.99560	6.72352	6.28507	49.87303	42.93153	32.13382
64210	4.95096	3.64864	5.23264	26.07331	42.85975	19.67310	6.72345	8.22435	6.36148	17.48162	25.84977	29.56336	7.94438	9.60541	4.20039	26.17272	18.66649	16.01410	21.80	6.1	0.00	7.42	0.01281	0.01292	0.01700	0.00773	0.00577	0.00632	0.00470	0.01270	0.01695	0.00673	0.00681	0.00899	0.01495	0.01102	0.01202	0.00216	0.00613	0.00863
64370	5.01597	6.73985	4.46844	21.72875	35.64543	21.06634	5.32277	4.42886	4.18988	63.88629	38.55641	39.75596	4.05927	2.38824	4.76872	35.52438	54.93262	33.10254
64540	9.53987	4.44331	5.46106	49.73423	44.04014	56.14556	11.92761	10.37224	11.97894	39.94953	24.55460	23.14090	8.74472	8.66849	6.47989	32.38049	27.78877	48.77050
64700	10.69913	5.91689	4.53478	18.08218	20.08597	32.29605	7.67481	8.68667	7.65371	22.96307	23.19060	22.91998	10.03123	4.86424	7.66863	31.32123	20.81109	22.35799
64870	4.58269	5.65052	6.28678	25.45649	18.15904	24.19053	8.12480	3.88438	6.92792	25.93063	44.70575	50.74739	6.96918	4.42608	4.51445	41.16032	21.94581	26.49847
65030	6.99669	6.25032	5.52599	32.86177	45.77829	24.67192	8.29668	5.67520	3.11589	14.56407	21.96719	16.83974	5.79591	3.20508	4.94420	22.88193	21.62864	20.35089
65190	6.15451	8.19507	7.57830	28.64905	24.59171	50.03228	8.00739	10.63581	8.97065	43.04769	71.46671	35.69585	13.46964	15.77118	14.42974	64.60285	76.33964	53.89177
65360	10.62884	13.16793	12.02243	46.61599	43.31185	53.15784	15.87709	11.36096	9.20145	47.47676	35.67668	55.65362	9.85885	8.16273	5.62642	43.40214	82.19591	77.47981
65520	3.79558	3.21089	4.00363	59.25609	72.76646	59.56502	6.90744	5.90009	2.09441	46.16358	38.43367	47.09991	6.26970	7.11551	7.13655	30.39882	52.54418	39.11428
65690	7.82813	8.60630	8.29469	68.82097	50.88742	48.79841	10.63577	10.32995	10.43524	55.08685	34.94237	43.68507	8.42983	8.94777	5.01355	69.41894	33.02769	51.75671
65850	1.57701	1.85645	1.71449	14.87633	28.02716	19.86162	7.38374	6.68027	4.01827	31.62909	28.42731	30.70466	4.71974	2.70800	3.90288	33.71379	32.18484	29.28391	21.73	6.2	0.00	7.30	0.01281	0.01292	0.01699	0.00773	0.00577	0.00632	0.00470	0.01270	0.01695	0.00673	0.00681	0.00899	0.01495	0.01102	0.01202	0.00216	0.00613	0.00864
66010	3.79038	1.78163	2.08448	12.45992	21.15164	13.25331	3.11333	2.33868	2.04623	14.52863	20.50349	26.83887	4.00194	3.63271	3.26803	50.87811	32.65435	33.40685
66180	6.54435	6.52618	5.90160	19.52242	19.96906	24.42165	4.20916	6.04127	6.58927	14.21844	26.14981	19.60266	7.30044	6.69191	4.73457	47.56141	35.31721	63.61351
66340	7.12052	7.68564	8.76710	33.66740	37.06553	31.44237	11.57004	6.69752	6.33979	46.33140	40.45779	26.39585	4.18358	3.17958	3.88046	36.79355	29.50365	24.52128
66510	2.91382	5.09268	3.58902	21.66119	17.21052	13.55894	8.67463	6.76637	4.30548	21.48773	21.97281	7.60144	4.13786	3.36533	6.06283	24.49974	8.37076	29.16236
66670	4.52032	7.44896	6.63501	20.98115	26.17958	35.44662	10.61789	10.62021	5.47130	18.68431	44.18338	19.57840	9.85233	6.53292	3.40343	39.48571	16.99509	18.73659
66840	6.79417	1.74715	3.10622	14.43755	10.15235	13.12372	3.18831	1.96277	3.37284	17.66300	14.07694	16.09339	2.52788	3.29060	5.38498	16.97958	24.41785	23.14372
67000	5.31833	5.37269	5.02936	27.35622	21.04379	26.13254	4.41120	3.76285	5.99409	27.62489	25.82833	31.36506	7.09683	8.74612	6.11270	44.67037	44.93913	47.73000
67160	3.84306	2.10495	1.36534	23.44922	24.46320	23.36577	4.09519	4.61702	2.95671	21.59695	22.07457	21.67051	2.15266	2.68666	5.03350	12.94489	41.26269	33.14298
67330	3.97653	5.71547	3.88738	23.02516	46.48284	40.13398	5.08512	8.13173	2.76775	53.14471	34.16693	33.10484	8.14146	8.05056	9.07416	23.12596	12.94514	21.54217
67490	6.67678	4.91662	3.33270	26.62180	22.60487	34.43240	9.60441	9.73353	7.71061	21.85264	40.21362	41.23556	5.94469	4.55670	2.72034	88.79418	47.03335	38.64322	21.80	6.0	0.00	7.32	0.01281	0.01292	0.01699	0.00774	0.00577	0.00632	0.00470	0.01270	0.01695	0.00673	0.00681	0.00899	0.01495	0.01102	0.01202	0.00216	0.00613	0.00864
67660	3.37626	3.74152	3.90037	15.55923	30.18571	25.90556	8.11069	5.91814	5.83944	31.60444	25.15333	26.41796	5.50951	9.13642	8.76535	44.69737	22.24116	48.55193
67820	7.15617	8.27416	6.36938	47.74818	81.83109	54.80653	10.75796	10.46368	10.41776	51.95367	31.71826	29.20058	7.33150	5.90652	2.95334	57.48636	27.86391	56.05098
67990	4.57889	3.04061	3.06778	27.28639	14.28001	18.20299	5.16277	5.06502	6.97227	10.32678	20.89582	26.83789	3.98632	4.66751	3.50630	21.53509	25.19806	13.22515
68150	4.97425	4.22363	4.54514	19.62039	12.87748	15.42545	6.89411	6.99250	2.59663	33.40109	14.02508	28.09692	3.96355	4.40602	3.96639	11.35118	18.37339	16.80142
68320	1.27738	2.11279	4.40209	30.50145	9.82674	8.60309	4.77974	5.43912	4.96744	13.55158	14.60790	18.21513	6.78875	3.43702	3.27151	13.44396	8.82874	24.21874
68480	3.12887	2.83946	4.31392	11.62332	12.02032	31.06513	5.90755	6.48572	5.21664	30.66624	26.42857	20.65345	8.12325	3.69358	6.07412	19.28034	21.95502	12.67970
68650	5.11502	5.48114	2.98759	15.85184	20.74524	14.37102	8.35847	5.41039	4.82018	19.27204	18.07325	15.75009	4.46627	5.62050	6.00566	24.86777	15.75247	19.88939
68810	4.14235	5.78258	7.18302	16.96666	19.05490	11.11648	6.92707	4.87540	4.72385	18.47359	10.74024	24.97166	3.09549	6.36593	7.57784	33.30132	30.39212	28.66614
68980	6.61494	5.05872	7.58461	17.36322	27.56868	29.74480	8.06103	7.79241	6.27392	29.22775	33.21344	16.76381	8.35113	4.66371	6.26976	9.63360	7.45692	7.85871
69140	5.15913	6.39718	5.56981	17.04035	14.48040	8.53527	6.79311	5.31290	2.33176	31.28011	24.38758	20.87266	2.04719	2.75783	4.85260	29.41594	28.15237	38.62828	21.73	6.0	0.00	7.46	0.01281	0.01292	0.01699	0.00773	0.00577	0.00632	0.00470	0.01270	0.01695	0.00673	0.00681	0.00899	0.01495	0.01102	0.01202	0.00216	0.00613	0.00863
69300	4.96714	4.31711	6.36184	55.75011	18.62873	36.13774	8.96464	6.69250	4.84265	37.55699	26.28046	26.85293	6.33604	7.37142	6.38792	15.58764	20.60126	34.29032
69470	4.60015	7.02123	9.18209	35.86058	40.18870	39.54207	10.92074	8.24810	10.70374	26.16339	46.88473	36.26408	4.99697	10.10367	6.59911	25.39939	42.47844	29.28785
69630	8.32216	9.63485	10.98960	48.61848	49.20951	22.38526	14.28690	10.11760	7.13413	38.76183	45.38864	53.20297	6.58167	9.45960	8.81325	30.82958	27.96186	27.02270
69800	4.05145	5.12347	6.41126	30.50678	35.33460	25.25980	11.91920	4.79048	5.85848	42.10527	44.31246	40.58377	9.07441	8.76890	8.12402	32.94731	37.08703	47.67224
69960	5.24474	5.04533	2.43288	24.85062	36.52964	38.88337	4.72605	3.73409	3.87730	37.33815	35.87020	60.24235	7.45575	8.07152	11.85091	28.66819	19.11526	36.71158
70130	12.81974	12.02566	13.60579	34.62174	28.74656	32.99964	17.06703	15.61424	10.98601	26.61632	52.28726	29.21242	14.01171	11.51842	14.55073	35.80351	49.92896	89.49910
70290	12.73355	14.03586	12.75727	70.90918	53.08979	74.52552	12.45175	22.29569	15.36169	83.82141	53.56589	93.30224	16.77434	19.76406	18.09136	86.83600	92.29897	107.41669
70460	10.77552	12.55056	10.37665	58.22632	60.72128	69.98097	13.12688	12.14166	9.64827	57.54578	27.27322	46.99168	9.27385	8.87814	5.31409	67.44059	33.46426	21.11534
70620	8.37845	6.74591	5.89706	43.39152	43.23004	27.77887	5.46118	5.19707	4.95877	38.51317	28.72262	46.12911	5.41091	6.36971	2.44279	25.20706	22.68930	24.78090
70790	5.77630	4.59007	2.51417	18.96587	18.28002	35.00664	5.04941	2.84287	7.36926	40.10743	38.04909	49.10994	5.57557	6.76894	5.13485	41.88007	52.55115	84.90328	21.86	5.9	0.00	7.42	0.01280	0.01292	0.01699	0.00773	0.00577	0.00632	0.00470	0.01270	0.01695	0.00673	0.00682	0.00899	0.01495	0.01102	0.01202	0.00216	0.00613	0.00863
70950	7.69287	10.01521	9.59322	60.36270	40.67780	43.41458	7.11104	4.21124	7.19836	34.69663	24.36989	34.90813	7.18678	4.86195	5.84319	53.57225	36.07690	27.34683
71120	7.86916	6.27874	3.29322	35.31822	73.85030	67.92650	12.81947	6.63608	6.04181	81.87280	62.34940	39.88774	8.46583	8.07954	5.40504	46.02186	33.28166	30.99836
71280	8.64737	7.15444	6.72383	34.97550	26.14052	22.78505	7.85737	6.65590	7.22294	16.82191	25.84274	34.73502	6.19111	1.41156	1.82037	25.20590	20.21186	25.82186
71440	3.40613	4.20101	4.27918	11.41189	8.04199	11.26852	3.75366	2.54473	2.45759	18.92310	8.96020	11.47140	4.19899	2.96631	3.16091	6.47824	10.98100	9.53703
71610	4.55149	4.48097	5.41117	13.44134	22.48583	14.91590	3.71988	2.46311	2.65869	44.44041	17.92900	17.19999	4.54379	3.84032	4.31776	25.41677	21.35325	31.56149
71770	4.46967	7.06060	6.21297	14.43693	16.25583	8.32600	6.44099	4.51832	6.72176	19.64075	20.35094	9.55595	6.61661	3.27717	4.66179	8.66063	10.70097	22.44094
71930	4.70308	4.83397	5.10248	12.11671	20.31287	12.68378	5.17859	5.71198	6.67343	14.65240	7.67213	14.37364	5.42472	5.67369	3.81718	15.03924	16.16613	34.75404
72100	6.38079	7.87307	9.27366	46.08617	56.82646	21.44938	11.63459	13.27283	8.81392	54.31289	82.19234	37.48712	6.93555	10.18636	10.02639	31.67387	46.22757	64.30821
72260	8.85986	9.96256	7.67325	35.90684	29.42074	37.19956	7.59450	5.89932	7.80018	31.37767	29.32154	22.14338	3.98678	2.57478	5.06534	22.62272	25.68974	25.56537
72430	4.20508	5.42929	8.52511	56.16328	39.07878	46.77541	7.41889	9.45524	8.46929	30.86170	17.81343	22.41367	7.35822	6.80268	4.15526	18.24986	26.20384	19.87986	21.80	6.0	0.00	7.29	0.01280	0.01292	0.01699	0.00773	0.00577	0.00632	0.00470	0.01270	0.01695	0.00673	0.00682	0.00899	0.01495	0.01102	0.01202	0.00216	0.00613	0.00863
72590	3.15456	2.90196	1.91502	18.95594	12.33248	15.31871	3.47612	4.12796	3.84433	16.61021	11.66610	16.08914	4.34037	6.00591	6.33661	15.16403	13.85381	18.46677
72760	6.69510	7.90876	6.39626	23.30837	41.98126	36.75839	8.20452	6.99312	5.82662	20.35324	33.38871	17.78739	5.94665	2.17085	3.05429	52.86297	28.21731	21.28132
72920	4.22028	3.62387	3.82229	24.39331	19.92792	12.57821	5.03886	4.36632	3.40299	10.24021	20.67765	15.10827	4.66399	6.73289	2.67936	13.04873	19.34956	15.15520
73080	3.03410	4.28619	3.99292	14.38371	12.60631	20.17187	7.77275	8.15242	5.28594	16.67653	22.19920	19.35023	5.62621	6.31905	9.76424	20.29030	17.55695	18.62567
73250	5.02537	7.04191	3.07557	21.49388	10.12401	12.94820	3.91864	5.99741	4.55196	30.31508	23.54564	30.87354	2.74635	1.46198	3.94056	20.75933	29.56802	22.07643
73410	2.88428	5.00336	5.59958	19.90267	17.53563	16.38466	8.40979	6.98343	4.91060	20.94660	11.97192	15.58535	5.73407	4.23021	3.75799	23.12248	16.33364	25.84508
73580	5.27300	4.71668	4.95685	19.51003	20.01885	17.10995	4.20090	7.84305	5.53380	33.02197	24.19949	28.80261	4.21203	2.46078	5.40247	33.10050	39.59670	41.05408
73740	2.78419	4.70564	6.04571	21.39926	36.61016	27.40706	7.90680	2.74700	3.95510	37.36421	43.96282	22.93195	3.09472	4.86538	7.03061	27.81636	18.42857	26.54756
73910	3.26850	4.88204	4.06784	19.45008	6.83918	7.81106	5.09626	4.62148	5.73739	32.50230	56.46719	25.38540	7.51604	6.57262	5.01129	17.24153	31.83757	58.32656
74070	6.06901	6.44128	6.24559	45.73841	21.15497	26.36042	9.02922	11.78741	11.88878	39.38597	50.35215	35.41387	13.98031	15.74027	14.90528	36.87752	47.18216	48.65761	21.86	6.2	0.00	7.30	0.01280	0.01292	0.01699	0.00773	0.00577	0.00632	0.00470	0.01270	0.01695	0.00673	0.00682	0.00899	0.01495	0.01102	0.01202	0.00216	0.00613	0.00863
74240	10.81129	12.40498	12.56128	62.34475	41.20668	51.92041	8.85030	10.68360	10.59297	42.09591	29.77478	48.33986	9.05706	12.22788	11.31856	33.23560	54.50784	78.53690
74400	10.23508	6.18742	5.64215	69.28134	50.33490	23.54717	5.84687	8.04850	4.31327	23.14585	16.19077	24.99639	9.13525	7.95924	8.18567	21.73489	20.66109	27.62934
74570	9.26649	8.09883	6.28901	37.66056	50.35141	45.60760	10.54907	6.82769	5.28518	38.89066	21.85239	22.76946	9.99619	9.23053	13.27242	14.39035	50.20549	26.01210
74730	7.12004	5.34373	4.81931	30.22944	40.11229	27.68633	9.97470	8.11009	6.13493	55.69720	69.05218	31.10789	3.57046	4.41312	2.86073	19.21081	16.03050	14.56985
74900	6.88520	5.09725	4.56060	17.29383	22.79113	21.64976	9.32396	5.68097	3.14071	19.89175	28.05398	13.45667	6.04521	4.82684	4.30341	17.50945	32.20013	30.16930
75060	2.53866	3.57955	2.43284	24.61427	23.82419	8.95132	3.93755	2.64683	3.82855	9.75529	7.87581	16.35587	2.79409	4.09722	6.23680	14.90277	12.78437	8.25376
75220	3.95221	4.11813	1.86741	14.32207	25.03960	16.36163	5.04001	4.94431	9.17752	12.16892	17.75872	30.35837	6.81388	7.67328	8.87326	23.77922	31.13592	25.06042
75390	10.28319	8.00804	6.51056	25.91231	41.46988	34.58942	10.70296	7.22295	4.11620	25.74168	33.41891	20.45242	5.84514	4.25074	3.10860	40.99172	35.63335	28.44278
75550	2.17226	2.44046	2.69351	15.99008	17.07562	22.73504	7.72692	5.58308	7.20947	32.94688	22.12863	35.01665	6.47687	6.73664	6.29858	21.01519	29.00967	12.44147
75720	7.20320	5.03579	7.25587	15.44196	28.97232	21.88992	12.34807	8.65538	7.44521	27.23587	31.99698	28.00167	7.21978	6.09809	10.64355	24.05906	32.70981	40.52270	21.86	6.2	0.00	6.39	0.01280	0.01292	0.01699	0.00773	0.00577	0.00632	0.00470	0.01270	0.01695	0.00673	0.00682	0.00899	0.01495	0.01102	0.01202	0.00216	0.00613	0.00863
75880	9.04042	10.71300	13.09815	35.05576	65.60258	48.22423	16.23933	14.04633	14.24899	40.35442	50.46378	74.70825	6.64421	3.75631	6.34234	60.80456	82.64034	76.09797
76050	6.73097	9.07795	6.37716	58.08595	50.13261	35.19242	6.60840	3.71303	6.32372	46.35177	43.88351	35.33620	6.01943	7.24488	8.76384	31.79631	27.44179	31.08998
76210	6.72106	5.93579	9.21720	85.05360	53.43652	40.20124	11.97061	8.72748	7.97286	48.07941	42.76907	27.26376	5.73387	5.58665	7.50598	28.79972	54.03430	44.45090
76380	6.09297	6.35988	4.66394	19.77591	49.55575	21.16547	7.30618	8.96760	4.48168	33.65321	27.06683	36.55474	2.19767	3.29878	4.37343	47.74616	80.74967	27.83070
76540	4.44496	6.85031	9.94522	56.06226	47.05236	54.49225	16.36558	12.16962	12.70860	41.44753	54.77203	52.04171	17.56385	13.44907	14.27377	29.68477	46.96004	60.50314
76710	18.37135	17.18896	15.39982	60.55295	67.19323	42.51734	16.10130	13.79487	14.92063	85.62295	58.06361	88.71531	8.79514	5.78913	7.48395	45.47558	79.56251	73.75804
76870	6.24636	6.02940	8.94095	52.78595	29.86458	22.66502	14.15486	7.22297	9.71073	41.12903	41.25762	51.27125	11.17188	7.03711	9.75255	54.28439	37.68011	22.39734
77040	6.25216	4.62918	5.72189	26.41842	43.10966	37.21502	8.21925	5.21783	5.49046	46.90969	21.93120	17.27775	5.55172	3.33885	4.31094	25.87343	17.84418	30.96523
77200	1.55987	1.43838	1.47866	49.56682	26.16450	19.45119	3.15860	2.47188	2.09467	30.46478	34.64076	28.56271	4.20898	4.62587	5.85233	15.11953	29.87112	27.00705
77370	6.30380	7.73131	5.43061	34.53928	26.96838	39.93599	6.62732	8.66509	9.16253	20.32796	14.73667	21.47847	8.29660	8.74398	8.45967	31.70092	37.13533	51.95899	21.86	6.3	0.00	7.33	0.01280	0.01292	0.01699	0.00773	0.00577	0.00632	0.00470	0.01270	0.01695	0.00673	0.00682	0.00899	0.01495	0.01102	0.01202	0.00216	0.00613	0.00864
77530	6.77665	8.18753	8.69261	19.78493	59.70007	41.93275	9.24684	5.84808	4.83588	33.88430	45.64490	22.34948	3.56989	3.00499	2.33374	23.08754	41.07833	19.76607
77690	3.99347	5.96696	5.78051	9.84578	13.49269	10.48755	5.44437	4.31151	2.58898	9.17925	20.54002	26.84347	5.19282	6.11541	5.88958	34.21048	29.47788	20.77153
77860	4.55506	4.01853	4.15590	22.17549	26.37051	22.11595	3.79326	4.65642	3.79184	15.95191	15.53929	23.74673	4.63768	5.50800	4.70997	34.79962	14.71124	15.23626
78020	5.73510	3.11061	2.82245	26.62523	56.36845	31.73416	5.41054	4.59815	3.75173	36.39250	19.18511	22.70292	6.81166	6.53397	5.99505	24.82738	20.84397	23.56667
78180	6.57211	7.43934	4.89482	22.91491	31.14679	19.61154	4.47379	3.80118	5.07987	10.81064	10.27497	8.15128	5.27087	5.24363	4.30425	9.64404	6.15710	7.11305
78350	3.06546	3.82239	3.35561	13.54989	7.03621	14.90926	4.78383	3.22859	3.00616	6.39411	8.20806	5.62081	1.43913	2.01827	3.23033	7.05185	7.80490	5.74385
78510	1.00405	2.42010	1.93775	7.60381	10.62386	15.39352	4.71523	2.82616	4.18121	9.60690	12.98675	13.35695	2.86417	5.38430	2.43849	18.51583	11.09933	19.00315
78670	6.23130	7.44078	7.87325	29.83370	21.09808	32.22025	9.14835	5.06348	7.50566	32.82144	27.15638	38.42240	5.00141	5.93697	4.69634	23.99668	32.10887	25.03760
78840	6.19530	5.45847	5.25149	36.60730	33.30987	32.09327	11.21899	7.63784	4.67328	27.46579	29.05063	28.65031	4.00181	6.60669	6.14764	25.53563	25.37599	19.33819
79000	5.34584	4.88230	3.71138	17.11846	17.01421	18.61633	5.41909	4.88923	5.23527	15.18727	18.15791	19.85963	6.21009	4.61625	5.75985	17.56641	15.20972	17.65856	21.92	6.1	0.00	7.32	0.01280	0.01292	0.01699	0.00773	0.00577	0.00632	0.00470	0.01270	0.01695	0.00673	0.00682	0.00899	0.01495	0.01102	0.01202	0.00216	0.00613	0.00864
79170	8.44761	6.42703	8.07657	28.35939	29.17560	38.55887	11.52942	9.72230	9.18630	30.77141	50.58880	38.73789	10.11406	9.40800	7.30458	39.56375	29.19657	23.00949
79330	7.33126	6.74142	7.58361	28.75020	66.08951	40.39460	3.99771	3.37121	2.52871	18.27625	19.07610	19.34561	5.61243	5.23706	4.25715	31.59038	20.00332	16.70122
79500	3.82239	4.28560	5.17066	17.56021	16.48338	22.15291	5.74293	4.36545	4.12379	15.33086	12.81994	16.65838	3.01492	3.57011	2.90302	25.42496	15.60804	31.48391
79660	4.54951	3.22668	3.69687	12.20252	7.41152	12.45071	3.77977	3.37035	2.48241	9.35592	10.49602	14.91971	2.59041	2.01083	2.37511	31.63744	19.42263	15.71223
79830	3.32654	5.78201	7.74956	29.45487	30.11475	48.17947	5.31634	7.43952	7.50329	32.86910	31.34692	30.77202	5.58876	5.72848	5.16453	16.20284	32.05733	32.52889
79990	7.92250	3.29609	5.31214	32.12516	37.24295	23.66479	8.40968	5.62742	5.46508	40.18868	28.53943	46.72229	4.19485	2.71384	2.88570	30.67027	26.42272	36.22939
80160	4.36693	4.89977	3.12355	33.10750	37.44476	26.42762	3.74793	6.88260	5.40321	26.10252	35.61028	22.17650	4.45449	9.03284	3.61657	32.47911	28.42704	35.11745
80330	7.27741	7.15923	4.02792	25.68168	17.53612	32.11365	7.32180	8.09744	6.01457	77.06792	55.51742	49.58815	7.22443	11.28064	6.40409	72.02355	87.03289	98.76768
80490	9.62813	11.94940	10.47118	73.22817	52.95463	76.25670	15.32503	12.64843	12.79228	49.99761	43.80028	37.42668	14.91962	16.41053	15.66385	80.71782	76.98151	91.57645
80660	17.36909	10.60298	14.78910	99.63372	97.36519	85.98167	20.03357	9.63639	17.79575	71.94252	60.06132	71.22505	14.38043	13.60568	14.09866	70.83679	67.12141	66.01777	21.86	6.1	0.00	7.32	0.01280	0.01292	0.01699	0.00773	0.00577	0.00632	0.00470	0.01270	0.01695	0.00673	0.00682	0.00899	0.01495	0.01102	0.01202	0.00216	0.00613	0.00863
80820	12.66798	10.36761	12.22622	75.98912	85.16763	54.17649	12.10057	13.51267	16.82977	58.77386	86.20300	85.96730	15.02564	14.35393	17.20733	124.90851	46.20675	50.33659
80980	16.15472	15.67550	15.21014	60.37405	71.18792	57.40865	16.07403	12.39392	14.70960	101.54052	88.86568	77.90166	8.37033	10.90145	11.82303	92.32755	85.36690	79.25692
81150	9.63464	9.67733	6.58829	41.37561	47.53380	42.08032	11.30444	7.24725	7.35973	57.47691	59.90562	37.58621	6.87971	7.97517	8.84179	28.14202	21.12535	21.46720
81310	3.71871	3.12475	4.81855	53.56502	35.76368	27.19823	3.55012	4.37839	2.44596	45.02492	53.08714	31.11851	2.60408	3.27652	6.26706	51.78965	30.70827	33.34661
81480	6.68934	9.76905	6.27347	19.97738	20.18875	27.92457	12.48776	15.14109	13.24310	41.27192	38.00542	56.73937	13.30620	13.96067	10.71160	67.16300	26.87173	23.12773
81650	8.51632	3.53343	4.29629	40.03355	32.32810	34.24212	10.13519	6.17817	7.69609	33.78283	43.15971	46.15126	6.03371	6.79449	5.63154	62.27453	72.97350	37.26523
81810	4.60471	3.40059	4.58319	24.69878	23.68825	39.41079	3.62046	3.87481	6.76359	33.87454	17.11097	33.33862	2.78048	1.69754	6.18184	40.00002	18.95534	22.42842
81980	3.86156	4.92241	2.51885	13.02252	25.80378	20.23697	4.98342	5.39149	6.23305	31.76304	26.20509	32.49832	4.09745	2.69334	4.69805	19.27101	23.44846	25.22678
82140	4.94293	3.29026	2.98681	30.06604	32.24977	43.19128	9.06144	7.46190	8.02665	50.59761	59.78926	53.09279	7.14859	8.81456	9.35982	73.72857	54.35698	45.96074
82310	13.02174	11.06858	11.13420	55.78103	53.05453	32.31093	11.09122	10.45795	11.87105	38.33632	72.34092	42.45092	12.99512	11.94410	10.18639	70.70473	31.90878	50.72539	21.92	6.2	0.00	7.28	0.01280	0.01292	0.01699	0.00773	0.00577	0.00632	0.00470	0.01270	0.01695	0.00673	0.00682	0.00899	0.01495	0.01102	0.01202	0.00216	0.00613	0.00863
82470	11.82765	10.01849	8.08349	35.39897	26.86378	38.93990	8.68774	6.88199	3.81253	34.91754	43.47515	20.52249	5.69961	4.77702	7.98513	43.09567	24.40778	17.68962
82640	6.52681	5.81491	5.75169	26.85539	27.53192	36.61026	6.25079	6.28295	3.68260	20.70879	22.92009	20.50228	3.56631	7.49899	5.70047	26.70413	26.84481	34.22880
82800	2.08337	4.16467	5.96435	35.24510	20.21609	23.42038	8.60008	4.51139	3.06824	46.21211	26.28581	28.76818	4.84333	4.68035	5.72916	26.46952	18.44405	35.34377
82970	2.96714	3.28252	5.45314	54.26835	34.23980	23.54499	7.05949	7.34564	7.53549	27.30830	31.55097	19.64525	5.95088	7.82495	4.88668	41.03240	57.14812	58.61918
83130	6.62310	3.53080	6.36190	20.66526	32.44920	36.47708	11.02704	8.49417	7.63162	41.88290	60.50951	40.14963	5.97595	8.01512	8.14751	15.23327	40.97000	36.51238
83300	4.27757	5.19833	4.82810	33.81321	33.73316	34.81084	5.29319	4.98526	4.15813	37.22141	36.34336	30.47881	2.12602	2.64310	1.85363	24.44286	18.43826	14.18901
83460	1.27790	1.86852	2.14145	20.68721	17.32615	19.30912	4.01313	4.24818	3.87151	19.49488	16.27383	5.27647	2.28035	3.95099	5.19432	12.86226	19.10232	14.33259
83630	4.15012	3.93949	2.56059	28.75956	23.47383	10.21571	7.96976	5.84864	5.73008	8.24643	14.16102	16.82181	2.57549	3.41341	2.59328	24.43463	22.32895	15.58306
83790	4.55784	6.13525	4.97815	17.60228	22.54690	61.30288	5.45799	6.84043	6.68328	24.77062	17.12105	24.21171	6.43005	7.16237	5.46182	29.91212	20.45166	8.43634
83960	6.30399	6.64121	7.35265	27.40688	26.48927	23.76912	6.77940	7.31810	6.80504	18.17639	14.05715	31.56200	5.20018	4.43645	3.24447	15.03044	23.96563	21.83644	21.92	6.1	0.00	7.32	0.01280	0.01292	0.01698	0.00773	0.00577	0.00632	0.00470	0.01270	0.01695	0.00673	0.00682	0.00898	0.01495	0.01102	0.01202	0.00216	0.00613	0.00863
84120	3.09292	2.64520	3.65821	19.01248	23.92836	30.93178	3.71496	4.71696	2.09259	40.29130	29.63069	29.39032	4.45920	6.65940	6.62757	20.57949	19.58814	38.74330
84280	8.59107	6.84932	7.62906	30.45058	35.70683	32.47529	12.28862	10.45812	9.78868	45.71745	36.92512	23.69296	5.21696	4.32123	3.96026	26.66124	29.55529	27.91594
84450	1.94107	3.78969	3.58962	28.80301	25.46250	13.94936	5.65725	5.12000	7.33816	22.15952	36.43241	50.33802	3.40916	4.87437	8.10434	28.30672	32.62876	30.81507
84610	4.69522	4.82800	3.38030	32.20702	33.86557	21.61138	3.63195	4.45198	5.15574	23.45131	13.99472	12.82553	2.85307	5.10234	8.01957	29.95253	39.43730	21.83908
84780	6.02114	7.15732	7.20513	21.43884	18.65527	28.59843	10.41872	6.88574	5.09502	24.29923	11.19173	22.41922	3.59836	4.30279	3.29207	20.10465	14.68443	12.80476
84940	4.79003	5.18544	3.91492	9.79158	12.10414	26.99827	9.76874	6.53457	5.27316	13.94661	25.69924	43.88195	4.87163	7.40963	6.61780	46.35465	31.95944	38.34143
85110	8.32362	7.75894	8.37786	39.49201	29.70729	41.71814	13.63196	11.54103	9.41274	24.11644	45.22144	37.43353	6.00071	6.17632	7.41882	26.47256	20.16871	26.20142
85270	6.89660	6.68876	6.11500	30.26638	26.11722	38.26846	7.34841	6.63657	4.67344	28.32033	20.79816	33.51365	6.50116	4.17104	6.48243	29.94877	24.23103	32.34039
85440	5.44669	5.78496	5.65846	18.55048	39.36993	41.71657	7.10563	8.38152	7.52936	44.89338	39.16655	30.95727	5.53650	6.50945	6.73562	45.17467	13.91026	27.95245
85600	3.34623	2.88706	2.28751	28.57405	37.09709	29.54158	6.27035	6.32634	9.18715	43.87035	29.87519	41.82779	8.87716	10.88438	8.63966	40.48873	21.66799	49.56060	21.99	6.1	0.00	7.34	0.01280	0.01292	0.01698	0.00773	0.00577	0.00632	0.00470	0.01270	0.01695	0.00673	0.00682	0.00898	0.01495	0.01101	0.01202	0.00216	0.00613	0.00863
85770	10.84231	9.09395	8.93787	20.00820	46.99243	53.01165	11.62100	7.93223	9.93601	48.62242	33.23726	28.83857	6.10033	9.61531	5.39256	32.81657	29.12230	36.62542
85930	8.99383	7.45417	7.85754	49.58295	43.59803	63.11307	12.73776	9.87385	7.17435	58.75769	33.50625	21.18868	7.66416	6.01874	7.63226	54.58955	77.18515	50.31676
86090	7.07805	6.77779	10.02524	33.86233	41.29956	21.72596	9.39451	9.12689	9.29864	27.85543	26.69443	24.02721	8.04113	6.63241	9.98441	90.89499	34.57991	32.20616
86260	6.19051	7.85917	7.92243	16.45576	41.92765	30.18793	9.08867	7.71057	3.87885	27.87195	14.65638	39.47118	4.98117	3.74176	3.34950	47.04560	50.73175	26.36671
86420	5.10913	3.28628	2.04461	32.66507	22.45903	24.90529	4.27868	3.11956	3.24640	27.83245	33.46490	31.40302	3.77844	3.30563	5.18673	23.72541	28.30801	26.96924
86590	6.45454	6.50683	3.82886	15.11939	36.77273	36.27113	3.70512	3.84883	3.35739	54.72754	35.92656	28.99049	5.10243	3.99326	7.59848	26.13758	26.43157	31.61340
86750	2.81985	3.21525	4.29051	12.49466	14.12476	8.34088	5.98571	5.28621	3.57817	17.89539	9.97393	13.93265	1.76424	2.28594	1.70086	6.92163	24.09243	18.19354
86920	2.40557	1.98843	1.89334	13.30444	16.85879	16.87809	3.81925	2.82314	2.40537	28.29850	23.22928	17.08914	2.49531	2.49748	3.69864	9.98535	5.83758	7.78308
87080	2.45032	2.39648	2.93996	8.50166	11.20894	12.76448	4.99699	4.20183	3.42370	9.98057	10.72667	9.10656	1.89315	1.55697	2.06201	4.73541	4.50398	7.93899
87250	1.33429	3.20407	2.64594	6.29322	7.57355	6.22327	3.77901	6.09785	3.90392	11.82992	7.95718	16.43928	3.29572	5.51050	5.35509	38.96830	24.57740	18.60623	21.99	6.0	0.00	7.29	0.01280	0.01292	0.01698	0.00774	0.00577	0.00632	0.00470	0.01270	0.01695	0.00673	0.00681	0.00898	0.01495	0.01101	0.01202	0.00216	0.00613	0.00863
87410	4.33313	5.10748	4.36331	15.14299	25.09835	31.26070	4.68332	3.86977	5.21095	19.05227	25.65083	28.46443	2.91003	6.94813	5.51280	22.74837	18.60056	17.60923
87580	3.31816	8.53850	7.63215	19.15398	28.78441	36.75077	6.41467	6.09319	4.42068	29.42534	38.34271	80.73985	5.57327	7.51045	8.59126	64.10680	61.28998	42.85394
87740	9.03859	7.95552	7.50002	33.19908	55.92962	29.21962	17.47835	13.22857	12.17749	27.10529	60.17984	42.25943	7.27234	5.79130	5.34601	54.37028	37.46776	36.04761
87900	8.34871	9.54685	9.87255	37.84215	40.45177	74.42038	13.20194	10.62888	13.56838	43.70817	47.90705	58.96990	13.52407	9.89879	8.94306	52.98432	81.31078	53.73200
88070	9.20645	9.22483	9.96577	63.57886	38.26461	29.81332	10.86626	11.23723	8.44782	87.17433	69.30912	42.90589	6.29365	4.76935	4.51557	18.12952	45.59732	39.17271
88240	2.79224	1.37743	2.07684	25.31433	25.12382	29.96614	4.62283	2.14482	2.16809	26.00831	22.43477	23.18731	2.43671	3.84335	3.46619	19.67383	23.38539	21.83494
88400	6.07736	6.64645	5.93265	17.17678	11.42261	18.75331	7.15954	9.32462	10.05049	16.63733	17.86035	25.73546	3.94730	6.88386	7.84599	13.71205	41.69292	48.39331
88570	6.25943	4.61221	3.56130	16.37597	18.25966	19.82312	2.91817	2.85463	5.15328	16.10736	18.58650	17.83272	3.80949	5.46715	3.60003	28.11520	21.74470	39.18858
88730	7.08038	9.01095	5.86031	39.93819	18.12952	28.22377	16.11202	15.64311	13.46173	26.47504	26.38844	39.34549	13.99994	15.26877	15.61898	54.74901	41.41847	51.05679
88900	16.31234	14.18505	16.02864	48.00145	77.46085	65.09785	16.31607	13.72176	17.50693	98.95775	88.53055	99.25628	12.64721	14.52875	13.15190	44.12382	48.60679	86.46640	21.92	6.1	0.00	7.26	0.01280	0.01292	0.01698	0.00773	0.00577	0.00632	0.00470	0.01270	0.01695	0.00673	0.00681	0.00898	0.01495	0.01102	0.01202	0.00216	0.00613	0.00863
89060	9.40567	11.15635	10.64032	30.15063	43.36435	37.39542	16.04851	13.17985	10.95771	40.65359	23.57208	26.99783	9.65957	6.71682	4.94819	46.98411	36.20877	56.13414
89230	6.65514	4.51999	2.81249	55.48740	53.40876	48.21998	5.02928	2.90217	2.67078	53.96723	56.49043	20.96241	5.66390	3.25620	3.14595	40.43775	29.96568	19.37529
89390	3.75466	5.16426	3.58600	16.26881	13.57137	20.53601	6.13210	4.20899	7.08042	25.20376	30.08703	15.03914	3.38632	4.47092	5.60476	7.60685	7.88176	15.17412
89550	4.71617	4.12553	3.06961	17.45596	18.03579	11.26116	5.10377	3.05795	3.22754	24.97350	33.72075	14.29530	6.25680	5.16495	4.39675	14.47598	14.06264	14.70315
89720	3.19333	3.53708	2.90609	21.55995	14.26272	12.93809	3.96373	2.85230	2.78859	9.34881	11.31311	9.29573	2.41531	1.45588	2.58834	12.00853	8.61869	7.82078
89880	2.46069	3.67882	2.19663	19.39416	16.93952	18.11307	5.04786	3.54399	4.15931	23.34795	12.55461	13.48947	1.91333	2.33431	3.15708	17.56670	19.31261	22.46314
90050	7.35969	5.72211	5.50659	15.37488	20.62484	33.10164	3.59048	5.72125	4.70470	31.28876	45.79924	49.58132	4.33599	4.22250	7.00066	66.04656	80.42115	27.66780
90210	4.95518	9.28053	10.38772	37.34708	56.53148	23.10471	8.75502	6.73339	5.18189	42.15602	28.08905	16.36977	5.63198	6.64251	4.77083	30.75521	25.93207	23.98319
90380	7.56586	6.19786	4.32359	18.03785	20.75102	22.43976	8.93860	9.22666	5.52842	50.32445	26.95312	32.52260	2.64713	1.78260	2.53237	57.81456	37.77148	56.45537
90540	4.83876	4.62098	5.47868	34.68314	23.12196	27.14700	8.40018	6.49916	5.42658	28.09837	18.72993	25.29024	5.25610	4.59899	3.16741	29.47227	23.69683	9.72690	21.92	6.1	0.00	7.35	0.01280	0.01292	0.01698	0.00774	0.00577	0.00632	0.00470	0.01269	0.01695	0.00673	0.00682	0.00898	0.01495	0.01102	0.01202	0.00216	0.00613	0.00863
90710	2.63044	3.91328	1.98578	12.45201	15.19022	17.91205	6.41456	6.15317	4.32401	10.50179	17.82719	29.67400	4.13874	3.43051	4.91051	30.63731	15.57585	21.21689
90870	2.47711	1.17227	2.20791	13.66199	12.79752	10.83654	5.52013	4.27674	2.88143	6.46238	7.03437	10.23325	4.44101	2.07371	3.43536	14.01032	20.95969	21.84334
91040	3.35362	3.65830	1.81150	12.90894	12.58069	12.88185	3.04904	3.92260	2.27606	14.03114	12.15709	19.11711	4.47560	3.79927	2.74230	23.98789	9.31348	11.28882
91200	5.31284	4.81255	3.53559	29.09190	19.05696	17.11352	4.83806	2.86269	4.50570	12.54670	13.62132	15.45491	5.42098	2.14297	2.83223	11.96925	9.67188	8.56412
91360	1.82919	1.62671	1.53623	10.10904	11.17088	9.01229	4.67967	5.72416	2.74295	27.78107	11.54949	21.11741	3.85132	4.79828	5.57220	23.52041	19.19651	25.86953
91530	4.73484	2.65014	3.40788	26.17359	44.95831	36.49407	9.36472	5.81045	5.03465	28.50593	27.41354	26.67712	2.86014	4.03472	4.98795	29.97548	34.44324	34.64555
91690	3.21447	4.83080	5.74755	19.92212	21.68359	28.98301	7.36627	6.68358	6.75586	30.94634	15.40445	37.22332	2.20703	6.35533	5.13031	26.62649	25.41765	16.85903
91860	4.59955	3.00077	5.32529	19.30048	22.19187	27.51213	8.89620	6.06284	5.51514	29.69582	23.32124	24.73994	5.20271	5.72098	3.70219	26.75833	13.35364	11.42628
92020	3.23707	3.85426	2.92888	27.87700	27.96592	22.04021	4.11972	7.12272	4.35833	33.77995	11.54090	36.60670	5.27421	4.80234	2.89418	15.51591	21.16153	27.50435
92180	3.09537	3.63561	2.01655	26.18539	34.85594	30.61669	3.27406	2.99221	2.66243	17.45749	40.72969	13.23226	6.23992	4.73190	6.16427	16.85198	13.04799	26.15909	22.05	6.2	0.00	7.29	0.01280	0.01292	0.01698	0.00773	0.00577	0.00632	0.00470	0.01269	0.01695	0.00673	0.00682	0.00898	0.01495	0.01102	0.01202	0.00216	0.00613	0.00863
92350	1.85907	2.19206	2.87650	14.16699	13.78094	19.59296	6.34192	6.09292	4.34216	9.43472	11.55178	18.25234	2.55981	4.27392	4.16304	17.65709	18.31500	16.12696
92510	2.52494	4.12123	3.99873	18.20787	19.96486	15.26665	7.54478	7.21058	8.56934	41.63855	27.83529	19.31028	13.41291	10.00594	10.39800	29.82940	32.02041	38.80901
92670	9.27687	10.72155	10.20906	38.45025	59.54149	35.81520	15.65603	15.08771	10.60404	32.27662	18.55622	23.70830	4.69328	5.88209	4.83675	34.43718	38.04626	48.54766
92840	3.91934	3.81724	3.67726	32.04418	19.71328	28.98076	5.14501	7.69068	7.43982	48.60321	31.36343	32.11157	3.86129	3.30096	2.95657	24.68867	52.65381	48.83512
93000	4.01714	3.67878	2.55334	34.62321	21.10886	12.07207	7.70610	3.52146	3.67737	22.06513	18.21305	27.64567	4.68020	3.21530	2.62031	15.82615	8.33327	10.28219
93170	2.48585	3.41809	3.67540	28.00987	36.53118	21.27030	10.02076	10.16947	7.51296	18.41837	36.77855	48.90338	9.36762	7.37532	4.62724	26.30135	31.21007	27.16716
93330	4.59759	7.01242	7.23236	25.34561	21.20211	21.14064	10.37096	9.54631	7.48328	21.83974	37.92381	35.05400	10.87514	8.97641	9.44864	30.94227	33.71975	39.58617
93500	10.55660	13.50065	8.70774	37.92817	53.97792	44.93678	10.60574	10.78824	13.79414	36.67716	44.50952	43.13168	10.22544	5.30573	4.67057	39.61791	35.35195	38.00656
93660	6.21285	3.64827	2.55451	15.97546	21.61642	17.77543	7.79963	11.24476	9.44060	28.08746	22.93985	28.37556	6.35347	9.04289	11.00143	45.10349	37.24701	27.47269
93830	11.29869	7.21841	11.91804	84.19971	55.90872	69.94230	12.13959	12.45206	13.22267	38.92988	26.26930	49.81453	10.76943	6.47832	7.67812	27.06794	38.74635	39.36960	22.05	6.2	0.00	7.32	0.01280	0.01292	0.01698	0.00773	0.00577	0.00632	0.00470	0.01269	0.01695	0.00673	0.00682	0.00899	0.01495	0.01101	0.01202	0.00216	0.00613	0.00864
93990	6.94635	5.09767	8.16458	36.96089	45.09317	19.95615	12.90704	12.72620	10.82661	37.45859	29.75647	60.27270	8.69913	10.13907	6.29655	35.46049	28.98879	29.24180
94160	3.56529	4.15985	3.23860	39.47813	26.31377	38.87320	3.61230	3.44820	4.03411	32.65593	17.95426	35.94335	5.98877	2.96720	2.67780	15.27164	26.35356	19.05826
94320	5.35978	3.61428	4.10500	24.86472	18.36086	52.44800	2.99124	2.98579	1.80737	17.93542	18.16347	15.61975	4.06920	3.19423	2.08926	21.47250	29.69959	22.12149
94490	2.48057	2.31575	5.37309	17.84215	11.78726	15.14462	5.12656	7.86449	6.46720	33.58956	29.74730	34.14345	4.36695	6.11179	6.86395	22.50067	23.92793	19.79062
94650	3.85906	5.85185	4.05142	25.05338	27.19675	24.85655	5.17487	4.45360	3.80529	20.55226	11.10560	11.93437	2.45393	3.65991	1.57735	22.35896	11.87274	16.88797
94820	2.95594	2.88258	1.83421	17.01864	16.80967	17.80704	4.45466	3.10684	4.59549	15.51785	16.24089	5.21383	3.94255	1.94688	1.23555	5.98882	3.22646	7.32400
94980	1.72453	2.57291	2.11813	6.45293	5.69196	6.68783	7.37705	7.95250	5.55739	13.75177	8.74425	16.20931	3.44221	5.03607	9.42816	32.52257	29.16260	30.52473
95150	7.37280	5.01962	2.97994	29.41379	16.35809	9.83488	6.90396	4.96110	2.21413	16.70802	14.60118	14.51325	2.27703	3.55067	2.75223	22.73824	12.83766	3.33014
95310	3.77325	2.88261	2.90882	14.08220	12.65913	11.44931	4.83352	4.72685	5.00665	24.82651	12.88902	11.59334	4.03135	4.06876	8.80115	16.57961	16.55946	26.42910
95480	9.15890	8.11810	9.15772	35.96449	28.87511	45.43610	10.32759	10.10040	8.20392	26.09819	35.97164	77.03934	7.41468	6.93379	9.09096	59.74172	51.21769	59.87118	21.99	6.1	0.00	7.31	0.01280	0.01292	0.01698	0.00773	0.00577	0.00632	0.00470	0.01269	0.01695	0.00673	0.00682	0.00898	0.01495	0.01101	0.01202	0.00216	0.00613	0.00864
95640	8.35145	10.26049	11.36588	87.07524	50.92796	89.77626	13.74180	14.15860	14.71263	41.40510	61.90599	41.71157	11.34933	11.60060	11.59530	29.04470	45.99219	40.87901
95810	10.56229	10.88053	9.51181	52.17835	33.17502	54.05659	12.60073	9.02573	3.83773	24.57420	57.76217	61.35067	9.26602	5.53616	8.95419	35.74799	23.49386	21.32393
95970	7.61950	9.07492	4.21593	23.49094	19.86882	30.95188	8.83501	6.70553	8.18678	31.96072	35.39243	38.02124	4.44288	2.44461	2.70226	39.82213	22.86984	25.34372
96130	4.51547	5.34723	3.26084	28.68310	21.15340	24.10440	5.49837	4.67398	5.75190	34.26186	31.23997	28.98728	7.92342	8.22944	10.59572	15.70561	34.13798	42.61357
96300	8.86884	9.98813	12.60254	25.79346	37.18881	36.60638	13.55147	10.21951	8.47168	29.61877	39.74059	28.78081	5.44978	3.72820	4.01294	45.58003	53.12720	30.38251
96460	3.81804	3.02518	2.82450	30.82435	35.92322	47.40598	5.25196	5.56740	3.91104	19.31303	19.63561	23.72040	7.61569	4.26683	6.22201	13.32987	18.23168	10.06031
96630	3.83857	5.66080	2.28480	21.93386	25.20738	15.00376	4.48055	6.49281	6.15267	14.51445	17.58422	24.38916	3.93967	6.15411	5.08450	20.15475	24.37109	45.76893
96790	3.79815	3.36727	3.33775	29.38370	17.74776	14.75700	10.10043	7.75099	4.43675	19.07252	25.74518	19.57532	4.18381	4.29114	4.32365	23.95019	35.86851	15.79983
96950	5.13179	7.58951	8.32885	17.25128	24.02858	18.56941	6.09775	4.79171	3.97878	31.91188	38.88186	24.63558	6.08083	3.38681	6.78218	29.36861	20.66862	46.94709
97120	5.58883	5.85688	5.26630	27.05308	21.30731	18.40775	11.39265	7.25893	4.32287	30.96698	17.05165	25.15606	3.04907	3.38253	4.36009	13.05102	12.31167	7.72419	22.05	5.9	0.00	7.72	0.01280	0.01292	0.01698	0.00773	0.00577	0.00632	0.00470	0.01269	0.01694	0.00673	0.00681	0.00898	0.01495	0.01101	0.01202	0.00216	0.00613	0.00864
97280	2.95237	2.85589	5.84700	15.36434	13.28408	9.66766	6.17197	5.49146	2.72444	23.02137	14.24654	18.64920	5.38262	7.17516	5.18866	24.85876	13.28609	7.44577
97450	7.56827	7.33499	6.58861	17.78026	28.03792	34.38296	6.30117	3.58744	5.60134	27.74531	19.93875	40.10822	5.44362	3.99691	4.09600	27.01971	27.94442	28.82894
97610	6.75846	6.26262	5.35745	22.76794	40.64244	13.76883	6.12126	8.63369	4.78932	29.45960	23.00747	16.50634	6.39153	3.55295	5.11782	18.66062	24.95468	39.84375
97780	10.41188	9.11098	5.72781	27.93323	37.69083	38.37247	8.47889	6.74088	8.23963	33.90964	42.79123	79.71510	7.92064	9.05970	7.67958	38.94750	71.14243	65.71902
97940	7.33807	7.59749	4.76648	34.43939	24.97196	41.11139	7.08239	6.01815	6.71722	9.92936	21.04145	27.26727	4.60598	2.86696	3.61160	13.11520	10.88050	14.44074
98100	4.06538	4.61149	3.04298	12.64220	11.79168	9.91405	5.95255	4.41636	5.25595	16.82058	28.63265	14.71135	3.47457	3.04790	3.05085	14.00182	18.33629	20.91803
98270	2.70285	3.17601	3.92897	25.61495	24.82522	34.89723	4.03727	6.11689	5.20263	48.20271	38.98117	46.27379	9.36768	9.54293	7.91485	47.86023	38.79101	48.16979
98430	10.45154	11.60369	8.97049	31.97161	26.35074	28.90749	13.53490	8.98834	8.61312	62.92828	28.56942	26.32484	11.75674	5.17718	6.39981	45.86050	57.42931	41.94827
98590	5.18480	3.22740	5.22794	34.12922	33.86064	53.59102	8.08488	9.97426	7.54629	18.69997	32.05981	23.91840	7.16906	7.67573	5.38941	50.40886	52.91874	45.25186
98760	3.31952	2.28674	2.64778	53.33169	23.18529	23.72252	4.41120	4.25600	5.17837	7.53944	20.31107	18.33412	1.93843	2.61947	1.98926	30.86482	17.45960	16.13482	22.05	6.1	0.00	7.34	0.01280	0.01292	0.01698	0.00773	0.00577	0.00632	0.00470	0.01269	0.01695	0.00673	0.00682	0.00898	0.01495	0.01101	0.01202	0.00216	0.00613	0.00864
98920	1.11354	3.50112	2.56304	9.97503	14.06009	7.95183	3.69547	2.31129	1.58920	7.98762	6.05066	5.60654	2.54094	2.27520	1.09199	6.62153	6.30202	6.14550
99080	1.73911	1.56009	2.08038	11.12962	11.01830	7.13032	3.57977	2.11323	1.70538	2.75112	4.12767	5.50916	2.15986	2.00334	1.50191	8.45448	11.11112	5.68300
99250	3.29545	1.50761	1.69817	9.94207	7.07153	16.91084	3.77642	4.20922	4.48105	13.04949	17.37415	18.12381	4.49535	3.74620	4.14325	27.09140	16.11451	16.20084
99410	4.80096	3.34920	2.25212	10.65501	13.35140	17.07608	8.89543	6.69675	7.32056	27.76854	21.59159	21.12833	4.74934	4.92399	5.46313	17.80712	20.43291	23.99275
99570	3.14338	4.06507	5.60229	35.63934	22.74946	25.29814	5.73294	4.87889	6.75646	29.32862	40.61969	46.76719	8.77312	5.46966	7.60769	42.00952	33.86064	41.01387
99740	8.42376	7.10906	6.36870	26.51471	35.34761	30.09859	10.79991	4.83338	6.87844	30.06346	17.05831	27.14462	6.14555	5.88054	7.36726	26.46846	21.40247	18.02603
99900	5.42760	3.75202	3.91867	9.99798	24.18397	9.54743	6.31548	5.38829	4.16169	8.71491	8.24240	24.65190	3.02502	2.18966	1.75871	23.24353	18.43070	26.47754
100070	2.71814	3.53880	3.54716	24.99077	35.05676	24.95850	6.04171	5.26373	4.59547	22.73989	18.21980	13.25993	5.79818	3.24541	4.90196	15.85650	14.59757	17.29671
100230	5.55406	3.72903	2.40615	22.56567	26.71510	29.99869	4.99823	2.54933	1.38529	22.39757	16.87303	19.11428	2.39621	4.38240	3.86701	22.98249	22.90961	27.81607
100400	2.32794	4.46852	3.04109	12.10348	11.08461	12.93691	4.40499	4.66131	5.22887	17.07597	16.80180	14.85664	3.28061	6.79454	8.47185	28.11456	38.56898	40.59455	22.05	6.2	0.00	7.30	0.01280	0.01292	0.01698	0.00773	0.00576	0.00632	0.00470	0.01269	0.01695	0.00673	0.00682	0.00898	0.01495	0.01101	0.01202	0.00216	0.00613	0.00863
100560	6.20829	4.40866	4.43537	17.92160	16.73958	54.50784	5.83244	4.66367	7.54639	27.97670	27.80453	44.72151	7.64546	8.09866	8.49439	31.21577	38.39416	21.32063
100730	8.09500	5.68878	7.23058	25.59467	26.41418	20.22072	9.05857	8.56308	6.87880	27.01308	24.68433	20.13231	8.76623	4.66804	4.13669	21.79376	41.78823	28.41155
100890	4.26807	3.65465	3.61752	18.43169	15.26169	15.60038	6.51481	4.23876	3.26141	23.79413	23.36039	25.09648	5.17296	4.95347	4.54689	49.86571	31.36195	26.94358
101050	2.83123	5.93852	3.23528	26.76604	18.87188	17.57315	7.99020	5.48676	5.89746	25.01803	28.91223	15.55802	4.79436	7.08055	6.00303	18.03568	19.99383	22.48238
101220	4.72871	3.62870	6.51075	31.94329	31.21798	27.58861	7.89277	6.29448	7.17809	28.36081	40.21472	34.76749	9.24172	7.74799	4.63347	69.29179	81.62697	46.77980
101380	7.60228	7.33952	7.02357	22.94637	25.69146	25.16633	6.22987	3.68693	3.96815	26.35777	11.51627	13.80694	6.79349	11.24083	8.76087	22.36844	28.91888	25.76470
101550	6.68919	6.92357	6.91556	24.13591	35.54839	21.20540	8.27450	9.90585	8.30669	22.79123	28.77728	27.69142	6.33609	6.13100	7.39621	34.35239	19.20483	23.80943
101710	4.58470	5.73913	5.80311	46.41425	28.17883	27.35412	8.16456	6.47572	5.08970	31.69945	21.14452	30.84886	3.84226	4.67843	5.64460	22.35998	19.00095	22.01222
101880	2.65251	5.70241	6.73988	37.33252	29.10463	19.65422	9.49077	9.58390	8.76407	25.78434	40.14052	28.33565	5.26529	5.12642	5.03172	29.13975	27.03288	33.08051
102040	5.40091	4.44833	5.09038	48.19087	41.82638	45.62203	7.37087	16.10154	13.47539	29.66251	47.34980	43.16370	11.66413	11.77290	12.41224	42.07893	64.58579	30.76351	22.05	6.1	0.00	7.45	0.01280	0.01292	0.01698	0.00773	0.00576	0.00632	0.00470	0.01269	0.01694	0.00673	0.00682	0.00898	0.01495	0.01101	0.01202	0.00216	0.00613	0.00863
102200	10.95353	7.83304	3.10913	94.56550	77.27126	47.27167	12.09516	10.22388	8.20102	45.63118	27.69579	37.19956	9.46474	8.64133	8.80054	55.67706	63.39128	30.22292
102370	5.67937	4.22463	4.80238	61.05298	49.34167	39.44560	6.95825	5.68496	9.30558	30.26192	20.04936	21.56868	4.52436	4.89299	4.14941	31.62575	34.85984	31.42373
102530	5.09702	7.04693	4.09714	17.53867	39.45295	20.23569	6.31739	7.80945	5.38798	23.84085	30.16792	20.21429	6.20433	4.38219	5.53032	23.14248	22.99657	25.07749
102700	5.08550	5.55733	4.89960	27.90573	20.67081	36.35940	4.54862	3.30286	4.72313	10.51288	12.81510	19.67830	2.42589	2.78651	2.91355	20.21245	16.75200	24.60666
102860	4.00693	4.07492	3.77586	18.32908	23.49001	16.65438	6.89362	4.01890	3.09134	15.14949	15.28736	18.63964	4.26982	4.68284	4.93291	15.63102	18.16302	15.08136
103020	3.14899	5.74378	3.81613	12.84701	23.71662	13.51720	3.58812	5.71713	4.12471	20.58879	26.49671	17.13595	3.84609	3.16564	6.51443	25.70594	22.88684	20.27413
103190	3.56551	6.89061	11.06619	34.17395	64.91052	27.66634	9.82083	5.75704	4.12647	23.03083	24.53461	25.63677	5.42267	6.30127	5.33221	29.73747	26.78858	26.95184
103350	5.78072	5.85004	5.52387	37.71358	24.15438	38.80222	7.71559	6.93610	6.37358	16.18177	18.74091	32.24454	5.04736	3.79946	4.49388	38.02766	25.08958	20.43440
103510	1.27091	1.40457	2.56537	17.33663	22.38856	42.62646	5.18850	3.97243	1.56689	13.39774	25.90061	14.86444	4.63364	6.00533	7.73805	15.74476	29.59596	33.76999
103680	5.74022	8.89774	9.65591	17.49041	22.32870	22.64032	9.62222	7.83945	7.29318	35.53091	28.22379	26.87262	10.17128	8.48345	7.74514	28.04254	28.44844	21.51318	22.05	6.1	0.00	7.71	0.01280	0.01292	0.01698	0.00773	0.00576	0.00632	0.00470	0.01269	0.01694	0.00673	0.00682	0.00898	0.01495	0.01101	0.01202	0.00216	0.00613	0.00863
103840	9.23536	7.08236	6.39478	32.65698	34.35937	42.74151	7.87341	9.03117	4.78066	52.31342	38.30616	43.78542	4.31123	2.33458	4.64965	40.05700	29.91951	27.87406
104010	2.48946	3.18008	3.81409	15.44051	15.56621	27.75601	5.50228	5.40966	2.97247	29.72403	28.19880	39.98908	3.23006	4.67224	4.78752	29.86924	46.42765	55.09282
104170	5.04822	4.01629	4.82985	44.37235	44.33560	43.74496	4.90540	4.44097	5.43468	55.25542	39.22627	44.13159	5.90958	7.85666	7.19271	32.33832	17.58160	8.92470
104340	4.01924	8.53019	7.82604	30.98894	50.65996	28.15205	9.36699	6.65778	2.54107	30.71776	23.63100	53.24750	8.01361	6.89568	7.51930	38.80294	28.85273	57.02166
104500	6.64326	5.22711	5.97506	45.45519	50.86007	30.85094	9.60115	11.15650	6.37221	53.12742	47.90500	41.57004	9.11390	8.52019	9.17635	40.20494	53.67933	37.49261
104660	7.48788	7.42722	9.69253	44.83811	37.51166	60.29188	13.97963	12.39485	12.37286	52.47536	66.95927	41.08754	9.11023	11.81283	10.78276	49.07107	33.43964	61.17126
104830	5.89948	9.00966	7.15171	73.20850	58.27010	59.14042	10.42053	10.30854	5.04965	65.61216	61.92713	42.45553	4.97335	6.45683	7.78975	41.58473	36.52506	47.94770
104990	5.44082	3.54604	4.09887	38.14110	47.49131	24.81549	4.79024	2.97100	3.17703	10.96119	17.61221	26.55528	3.08432	3.10765	2.62251	20.03214	27.82840	19.45863
105150	2.14304	3.29908	1.99451	19.49881	27.83379	18.87110	6.37542	2.19934	2.27152	22.43555	8.95571	9.92279	4.88029	5.55115	6.35076	32.60469	21.62374	21.59346
105320	5.84115	6.28467	6.72667	26.16722	21.20506	21.45607	6.24620	5.44588	7.60005	16.35371	21.92835	22.88010	3.56414	3.93564	3.99355	53.42840	33.74475	19.07624	22.05	6.2	0.00	7.39	0.01280	0.01292	0.01697	0.00773	0.00576	0.00632	0.00470	0.01269	0.01694	0.00673	0.00681	0.00898	0.01495	0.01101	0.01202	0.00216	0.00613	0.00863
105480	2.13930	3.27613	7.39260	23.81734	23.45123	13.16884	7.64049	6.55537	6.42025	23.94920	15.35104	30.02552	3.55551	3.06420	3.77502	38.34398	25.48996	16.09133
105650	4.55160	3.99391	4.95819	17.30978	8.24868	18.70390	4.64709	4.96923	5.08416	17.27241	11.59418	11.22964	3.36430	1.95519	2.91730	12.17358	11.26470	6.53982
105810	2.75611	4.77944	3.52237	13.38311	12.24889	10.91196	4.86910	2.90508	5.88301	16.72488	11.25679	14.04158	3.80069	4.21359	4.05666	25.34482	31.58356	21.68195
105980	2.68365	2.34781	3.42517	21.33495	22.70490	16.97831	7.02507	5.88211	4.19316	30.20397	26.83118	26.64717	5.93892	6.17774	5.31092	30.77720	32.14967	29.86394
106140	7.54820	7.30904	8.30886	49.96259	61.07376	44.67963	10.23936	4.78321	8.01394	32.69440	21.57915	17.28596	5.39323	7.47987	4.75672	41.23010	21.64969	45.37012
106310	4.40535	5.65501	4.20088	30.70518	29.19115	19.22428	6.50853	6.76769	4.02680	27.44297	22.96129	26.64106	7.19933	8.73480	6.80836	26.06838	35.96215	39.39996
106470	5.70334	7.43252	8.77979	56.71049	50.34231	57.09310	13.38554	11.62713	12.48972	55.33446	22.10811	19.19753	11.42742	12.17498	9.26888	59.76382	29.59049	54.09521
