WetView ver 7.1	07-18-2018	11:51:55
AC9 Absorption and Attenuation Meter
00000266		; Serial number
2	; structure version number
Reserved
0.000000	0.000000		; Depth calibration
19200			; Baud rate
0.100000			; Path length (meters)
31			; number of temperature calibration bins
				12.59339	13.44920	14.48425	15.49668	16.50852	17.49564	18.50545	19.52458	20.50176	21.48889	22.47318	23.48707	24.50962	25.49370	26.49784	27.51372	28.50746	29.47237	30.47938	31.50214	32.50470	33.49235	34.50337	35.50914	36.50618	37.52058	38.51018	39.51308	40.49994	41.49866	42.47204	; temperature bins
a650	Blue	20.34952		-0.00383	-0.00415	-0.00430	-0.00391	-0.00363	-0.00317	-0.00269	-0.00237	-0.00179	-0.00130	-0.00099	-0.00071	-0.00015	0.00000	0.00004	-0.00001	0.00015	0.00036	0.00058	0.00101	0.00161	0.00132	0.00160	0.00169	0.00242	0.00273	0.00336	0.00365	0.00427	0.00566	0.00670		; offset and temperature correction info
a676	Green	20.51193		-0.00398	-0.00384	-0.00360	-0.00306	-0.00302	-0.00255	-0.00235	-0.00212	-0.00163	-0.00136	-0.00118	-0.00089	-0.00029	0.00000	0.00068	0.00082	0.00099	0.00137	0.00145	0.00212	0.00260	0.00252	0.00321	0.00354	0.00457	0.00535	0.00617	0.00648	0.00742	0.00887	0.01002		; offset and temperature correction info
a715	Brown	20.23230		-0.00421	-0.00394	-0.00391	-0.00291	-0.00264	-0.00192	-0.00204	-0.00179	-0.00188	-0.00239	-0.00180	-0.00187	-0.00099	0.00000	0.00084	0.00162	0.00188	0.00224	0.00321	0.00381	0.00466	0.00528	0.00588	0.00696	0.00859	0.01041	0.01148	0.01282	0.01333	0.01456	0.01617		; offset and temperature correction info
c510	Red	20.40042		-0.00261	-0.00247	-0.00258	-0.00225	-0.00203	-0.00197	-0.00199	-0.00203	-0.00154	-0.00103	-0.00069	-0.00019	-0.00007	0.00000	0.00011	-0.00021	-0.00042	-0.00056	-0.00040	0.00011	0.00036	0.00050	0.00077	0.00079	0.00050	0.00042	0.00043	0.00092	0.00147	0.00200	0.00232		; offset and temperature correction info
c532	Magenta	20.40760		-0.00248	-0.00265	-0.00278	-0.00279	-0.00296	-0.00292	-0.00238	-0.00206	-0.00129	-0.00096	-0.00092	-0.00052	-0.00009	0.00000	0.00007	-0.00049	-0.00136	-0.00107	-0.00079	-0.00065	-0.00074	-0.00105	-0.00152	-0.00192	-0.00236	-0.00269	-0.00252	-0.00233	-0.00172	-0.00128	-0.00067		; offset and temperature correction info
c555	Black	20.50654		-0.00053	-0.00063	-0.00106	-0.00094	-0.00068	-0.00055	-0.00053	-0.00039	-0.00028	-0.00025	-0.00011	-0.00035	-0.00007	0.00000	-0.00037	-0.00055	-0.00036	-0.00014	0.00019	0.00044	0.00032	0.00040	0.00050	0.00028	0.00014	0.00013	0.00030	0.00073	0.00117	0.00176	0.00241		; offset and temperature correction info
a412	LtBlue	17.15231		-0.01972	-0.01823	-0.01612	-0.01381	-0.01272	-0.01080	-0.00959	-0.00866	-0.00710	-0.00532	-0.00354	-0.00148	-0.00028	0.00000	0.00176	0.00297	0.00394	0.00440	0.00453	0.00487	0.00804	0.00856	0.01065	0.01248	0.01388	0.01439	0.01659	0.01881	0.02256	0.02450	0.02719		; offset and temperature correction info
a440	LtGreen	18.00171		-0.00729	-0.00642	-0.00581	-0.00502	-0.00426	-0.00349	-0.00244	-0.00218	-0.00179	-0.00101	-0.00046	-0.00006	0.00036	0.00000	0.00040	0.00045	0.00030	-0.00015	-0.00024	-0.00035	0.00012	-0.00013	-0.00033	-0.00089	-0.00142	-0.00189	-0.00231	-0.00205	-0.00140	-0.00140	-0.00146		; offset and temperature correction info
a488	Yellow	18.86491		-0.00113	-0.00102	-0.00106	-0.00064	-0.00027	-0.00020	-0.00030	-0.00037	-0.00047	-0.00059	-0.00052	-0.00012	0.00008	0.00000	0.00025	0.00012	-0.00013	-0.00043	-0.00065	-0.00076	-0.00025	0.00010	0.00090	0.00111	0.00113	0.00104	0.00073	0.00068	0.00120	0.00186	0.00258		; offset and temperature correction info
c650	Blue	20.46075		-0.00145	-0.00097	-0.00092	-0.00139	-0.00185	-0.00196	-0.00237	-0.00266	-0.00238	-0.00163	-0.00083	-0.00041	-0.00010	0.00000	0.00005	-0.00001	0.00015	0.00034	0.00029	0.00065	0.00101	0.00164	0.00126	0.00156	0.00175	0.00270	0.00287	0.00371	0.00407	0.00473	0.00534		; offset and temperature correction info
c676	Green	20.10118		-0.00170	-0.00144	-0.00149	-0.00177	-0.00188	-0.00194	-0.00198	-0.00196	-0.00177	-0.00156	-0.00140	-0.00091	-0.00033	0.00000	0.00050	0.00092	0.00110	0.00141	0.00167	0.00199	0.00216	0.00265	0.00269	0.00289	0.00315	0.00374	0.00367	0.00408	0.00486	0.00561	0.00646		; offset and temperature correction info
c715	Brown	19.91219		-0.01201	-0.01097	-0.00859	-0.00680	-0.00651	-0.00592	-0.00535	-0.00440	-0.00387	-0.00303	-0.00222	-0.00153	-0.00028	0.00000	0.00093	0.00149	0.00247	0.00322	0.00330	0.00427	0.00373	0.00464	0.00536	0.00551	0.00643	0.00733	0.00779	0.00884	0.00899	0.01021	0.01120		; offset and temperature correction info
a510	Red	19.21192		0.00201	0.00193	0.00158	0.00098	0.00089	0.00049	0.00011	-0.00016	-0.00016	-0.00005	0.00028	0.00025	0.00006	0.00000	0.00035	-0.00022	-0.00023	-0.00080	-0.00144	-0.00154	-0.00153	-0.00204	-0.00220	-0.00219	-0.00190	-0.00128	-0.00069	-0.00018	0.00068	0.00152	0.00241		; offset and temperature correction info
a532	Magenta	19.41084		-0.00097	-0.00072	-0.00060	-0.00081	-0.00062	-0.00071	-0.00040	0.00020	0.00028	0.00043	0.00000	-0.00035	0.00007	0.00000	-0.00011	-0.00059	-0.00080	-0.00098	-0.00137	-0.00162	-0.00163	-0.00130	-0.00073	-0.00018	0.00090	0.00185	0.00175	0.00247	0.00291	0.00327	0.00349		; offset and temperature correction info
a555	Black	19.69776		0.00171	0.00183	0.00183	0.00186	0.00191	0.00170	0.00115	0.00131	0.00097	0.00073	0.00060	0.00013	0.00015	0.00000	0.00014	-0.00029	-0.00066	-0.00082	-0.00116	-0.00139	-0.00134	-0.00167	-0.00119	-0.00093	-0.00048	0.00053	0.00111	0.00095	0.00178	0.00206	0.00273		; offset and temperature correction info
c412	LtBlue	19.91180		-0.02051	-0.01853	-0.01589	-0.01311	-0.01059	-0.00877	-0.00705	-0.00581	-0.00413	-0.00231	-0.00098	-0.00066	-0.00011	0.00000	-0.00013	-0.00085	-0.00170	-0.00170	-0.00302	-0.00330	-0.00429	-0.00551	-0.00626	-0.00775	-0.00978	-0.01181	-0.01113	-0.01108	-0.01116	-0.01192	-0.01291		; offset and temperature correction info
c440	LtGreen	20.06241		-0.01064	-0.00992	-0.00892	-0.00766	-0.00639	-0.00531	-0.00478	-0.00384	-0.00287	-0.00187	-0.00102	-0.00063	-0.00023	0.00000	-0.00007	-0.00053	-0.00090	-0.00119	-0.00169	-0.00197	-0.00226	-0.00257	-0.00260	-0.00289	-0.00394	-0.00470	-0.00481	-0.00493	-0.00520	-0.00580	-0.00620		; offset and temperature correction info
c488	Yellow	20.35984		-0.01125	-0.01082	-0.00966	-0.00833	-0.00726	-0.00661	-0.00579	-0.00500	-0.00389	-0.00278	-0.00167	-0.00113	-0.00041	0.00000	0.00055	0.00121	0.00187	0.00226	0.00222	0.00251	0.00281	0.00359	0.00414	0.00427	0.00401	0.00404	0.00486	0.00563	0.00638	0.00684	0.00718		; offset and temperature correction info
0.003500	0.004000	0.015000	0.020000	0.015000	0.020000	2500.000000	2000.000000	1000.000000	; maxANoise	maxCNoise	maxADifference	maxCDifference	minACounts	minCCounts	minRCounts	maxTempSdev	maxDepthSdev
0			; auxilliary capabilities
1			; acquisition binsize
0	7.57598	11.80784	7.96400	26.58695	19.91361	18.17235	12.75637	7.74657	7.34384	29.18062	11.96483	20.65624	2.35586	7.20318	10.76784	24.91069	21.88147	44.11296	26.35	6.1	0.00	7.32	0.01272	0.01289	0.01663	0.00767	0.00572	0.00627	0.00467	0.01264	0.01683	0.00667	0.00678	0.00877	0.01488	0.01095	0.01195	0.00214	0.00608	0.00855
160	5.54653	6.04064	6.81628	39.31695	20.16287	26.34879	9.68102	13.39999	12.67729	36.91423	24.39522	16.82136	11.93580	9.18009	8.39095	61.05016	66.48474	44.34739
320	4.87937	4.55532	4.41564	30.70773	37.90593	28.43181	9.77960	5.48035	5.72129	22.90080	30.47271	29.58246	5.17257	6.26475	6.27777	46.11577	26.05547	19.87780
490	6.39018	5.50650	5.98603	28.45593	15.97979	11.24739	9.67509	12.53459	8.08412	7.01849	14.60105	28.19232	6.28649	6.17043	5.63697	11.34966	7.04258	7.53096
650	4.99218	6.01141	6.68350	11.01638	8.63028	6.32767	10.50513	6.35070	7.02353	7.03487	5.58419	5.99572	4.34868	3.87730	5.52749	11.91374	9.50490	7.74322
810	7.32902	4.96454	1.91401	12.41214	4.92263	9.04187	9.79077	8.60208	8.53189	18.69167	17.77190	12.57676	6.43262	6.28100	4.84327	22.29607	16.83298	12.18837
980	4.72292	5.66019	3.35679	8.98233	8.59229	19.31872	8.49024	8.10312	5.73331	17.19877	11.63148	15.56312	10.96231	3.35934	8.01884	19.86504	28.15067	19.88080
1140	5.93788	5.28723	3.51721	7.63243	17.80779	8.81744	8.07941	7.08693	4.49813	18.91642	14.16638	29.22661	3.70045	2.08041	2.45563	27.31640	14.31561	20.53280
1300	3.33331	3.18821	4.36386	9.84849	9.98716	12.98203	7.57795	6.53507	3.41110	16.73757	10.23888	21.55991	5.75833	7.60055	4.30528	23.95184	34.45016	20.81841
1470	4.25852	5.65143	7.46343	14.46638	18.24931	16.52901	10.71277	9.47969	5.49488	16.32734	24.88441	22.02015	8.32593	6.60325	7.55884	24.40844	35.95173	17.99522
1630	3.80007	4.30973	4.36557	22.29457	22.73581	20.16261	13.88218	12.53050	11.95382	12.90785	28.59232	18.10975	4.43813	6.75204	11.68460	41.82566	24.08219	37.55559	26.41	6.1	0.00	7.34	0.01272	0.01289	0.01663	0.00767	0.00571	0.00627	0.00467	0.01264	0.01683	0.00667	0.00678	0.00877	0.01488	0.01095	0.01195	0.00214	0.00608	0.00855
1790	6.77116	8.46813	7.43975	39.00920	29.31853	48.61733	11.16529	9.27130	3.64240	34.77278	21.07511	35.54247	4.47729	6.81174	7.69943	24.08419	28.40348	20.75784
1960	5.54959	2.78929	6.03298	35.29100	37.54233	31.26686	9.68346	7.82896	9.61431	27.97557	37.54615	46.53963	12.49676	11.51513	11.24176	83.54220	73.69365	54.71799
2120	10.14124	10.46254	9.12344	51.43025	44.64010	30.53040	14.25837	11.74379	9.53343	17.31298	13.49490	25.54103	10.41766	9.84336	8.93040	40.26037	41.06692	28.52128
2280	13.12942	8.86740	6.11554	57.62015	52.78624	34.11694	12.70147	10.97557	11.70087	30.44240	56.80114	40.07888	6.92217	9.26689	8.78857	59.83072	31.01366	18.48530
2450	5.00854	5.36875	3.01796	20.71258	31.55823	24.94535	14.57159	7.46716	6.50037	15.64615	16.70488	16.69585	8.95217	5.28998	8.72779	22.08996	28.17119	32.46994
2610	5.44785	4.09784	6.64317	54.31341	30.81843	33.16994	9.88634	6.55710	4.00093	17.33872	28.81983	20.26179	5.69593	2.95903	2.04018	15.79425	7.79745	8.34485
2770	2.57846	2.34658	2.71102	4.16692	9.52967	9.07696	6.40521	5.61627	8.06864	6.37636	7.47168	9.06748	5.93097	4.23801	3.38622	16.17578	14.77576	12.58320
2940	1.85121	2.41193	2.50585	9.49739	11.97073	14.17399	7.79323	7.05876	3.59222	10.91151	9.85269	8.98816	6.54654	6.55422	4.62486	13.07615	9.71337	10.77021
3100	3.90780	5.39373	4.10246	17.49822	9.01115	8.04783	9.68854	5.42245	7.23044	12.71664	16.24154	22.68947	9.00448	6.40308	6.25812	19.50485	19.41093	37.96767
3270	12.23819	7.78771	8.17566	30.22110	26.24136	41.83176	11.94601	10.60665	9.34081	25.97588	22.87640	41.50883	4.67696	7.37050	7.24689	27.63275	24.95933	12.86699	26.46	6.0	0.00	7.37	0.01271	0.01289	0.01662	0.00767	0.00571	0.00627	0.00467	0.01264	0.01683	0.00667	0.00678	0.00877	0.01488	0.01095	0.01195	0.00214	0.00608	0.00855
3430	3.45962	4.47275	2.20272	8.12056	18.41578	19.66564	6.06261	5.36503	5.40363	22.88601	17.96082	11.80712	5.31632	3.82799	3.68479	12.55146	7.68171	15.18548
3590	7.79973	6.80217	5.73266	9.85351	17.40203	27.00016	9.39902	8.16052	4.65076	22.50860	18.06969	29.74937	10.07711	6.84709	8.05840	27.35318	43.27076	24.55961
3760	6.41807	4.26763	5.87678	21.23248	18.07984	14.63919	9.16295	8.15393	4.98331	27.79050	17.72756	24.16972	6.94732	8.19813	8.39605	16.29164	16.48188	25.93145
3920	5.27464	5.18795	5.06277	33.51536	48.18877	25.65636	8.69885	7.55716	6.55176	11.57132	19.12581	16.37883	7.49755	9.14908	9.35414	21.28534	11.79638	33.14136
4080	5.62194	5.09053	4.14913	15.02456	31.78790	30.72495	10.99448	9.82511	7.52107	23.80370	27.62460	39.22533	6.39177	5.30065	4.03056	55.67479	20.52844	37.70100
4250	6.76092	5.47752	6.25684	35.35012	13.39759	11.65051	10.27896	6.53655	5.25209	24.84533	17.24882	18.95602	5.48112	7.70541	5.34519	22.74038	13.25758	11.94596
4410	10.46600	5.86025	9.81255	23.21933	30.27901	20.78434	12.64156	11.79292	7.09855	25.02593	50.77393	46.26665	5.17030	8.06488	7.11551	63.60919	55.52850	74.29049
4570	6.56689	5.12608	8.64244	28.43703	19.79776	15.33624	9.79288	7.42842	3.14254	35.80764	23.70363	23.19794	5.78166	3.92746	4.59289	12.30643	18.44819	26.59887
4730	4.22511	4.28071	3.45383	23.30800	22.82375	17.96127	8.77784	9.84266	9.17263	12.09522	8.40786	19.05784	6.07814	4.71942	3.73368	19.72293	24.75710	25.79022
4900	4.87680	5.36027	6.53447	26.28036	23.70131	17.09022	7.24572	7.16664	6.25773	9.59997	7.30066	11.83584	2.89875	3.59381	4.00937	11.62848	22.97541	29.61004	26.46	6.2	0.00	7.41	0.01271	0.01289	0.01662	0.00767	0.00571	0.00627	0.00467	0.01264	0.01683	0.00667	0.00678	0.00877	0.01488	0.01095	0.01195	0.00214	0.00608	0.00854
5060	4.65551	3.53401	3.09033	22.04600	15.93252	16.68364	7.90227	7.37643	2.67500	11.05622	13.90412	11.92894	2.74633	6.37798	6.41816	19.60488	28.98071	21.85099
5230	4.92911	5.30516	3.52853	24.22810	14.59234	6.20226	9.51220	8.55387	6.41925	8.90733	26.11885	11.10994	4.82075	5.18522	5.06926	18.97558	10.32875	12.30718
5390	1.92142	1.52957	1.63910	13.60755	7.77831	8.29001	8.29850	6.49460	7.21296	14.79918	15.51621	10.28730	7.93765	8.77346	4.10799	20.60728	24.86351	18.00539
5560	6.52725	5.29479	4.78006	15.68481	48.31807	41.07850	14.08435	15.05613	12.68711	43.38078	52.40200	35.34544	9.43249	10.03935	11.83791	66.91172	47.57430	57.68958
5720	8.63965	12.90926	9.48857	28.33583	28.28434	27.50316	13.01705	12.72536	15.02978	38.23332	31.74720	36.65026	11.49857	12.60964	8.24487	29.60664	27.48389	20.72634
5880	12.50667	9.26600	7.71633	10.96280	14.93389	13.69589	11.24581	10.72417	11.28807	31.82957	21.17897	24.19597	12.41113	8.87548	8.04477	22.58464	59.63914	37.75098
6050	5.98720	5.03353	1.98950	31.39211	26.67884	11.43765	6.49373	4.59796	9.28500	30.73166	17.15993	16.41147	5.38026	7.94908	7.86422	12.15336	10.39140	14.31509
6210	6.47612	5.01271	5.70783	15.51821	33.36442	19.96409	10.28768	9.81100	4.80934	43.44114	21.54964	25.73629	6.26749	7.35640	5.12644	24.03524	16.70850	33.66249
6370	5.82185	5.82875	6.91672	18.59692	35.34071	35.17677	11.18781	10.59287	9.05993	17.41995	24.89592	27.66266	5.41154	5.71970	4.18918	18.65063	19.83585	23.62380
6540	2.47455	5.46596	3.77659	18.39176	10.96306	10.90456	9.62994	9.30116	5.47071	7.04068	7.54677	9.83371	6.95427	6.31214	4.36162	10.97334	5.13228	6.61342	26.46	6.3	0.00	7.43	0.01272	0.01288	0.01662	0.00767	0.00571	0.00627	0.00467	0.01264	0.01683	0.00667	0.00678	0.00877	0.01488	0.01095	0.01195	0.00214	0.00608	0.00855
6700	1.87808	2.74360	2.56457	10.40605	19.21447	10.35298	6.48087	5.37692	7.68488	4.80051	7.60918	10.03780	5.45333	7.96054	3.81985	16.51746	13.45902	19.56142
6870	4.27120	6.44501	6.61339	20.44370	31.37864	25.99082	8.85847	7.92008	4.04202	11.90905	11.98477	19.20029	4.26855	4.42465	5.89825	21.88163	21.90864	10.36154
7030	3.03262	5.81192	4.98367	19.60152	11.25814	22.03746	11.11859	6.13349	7.38659	9.70490	15.72217	8.55477	5.15845	5.32478	5.81223	7.92970	7.80345	3.78201
7190	4.11911	5.04991	5.76500	12.99617	12.25488	20.38975	9.47693	6.51164	4.57723	11.93958	7.54935	18.33809	6.14631	5.17613	5.57713	10.97039	16.59488	17.47918
7360	4.40458	5.34439	8.18407	29.84883	12.70450	18.16636	8.93155	10.03215	6.42928	10.91089	9.73476	17.14773	7.61846	6.86919	4.47467	28.39891	23.43391	20.76758
7520	6.23880	6.03902	3.34057	9.73842	5.93717	17.44417	9.64884	7.72757	5.63854	15.37030	15.75177	12.05988	4.86407	3.75840	3.56478	10.96277	11.85679	12.57382
7690	4.38634	3.08610	4.17715	17.28237	21.78975	14.66264	9.82253	4.36808	3.47391	11.01015	12.56280	19.15753	5.63867	5.02359	5.52864	21.11603	18.25031	16.87561
7850	3.70603	2.08939	8.19261	16.03172	50.48337	17.13566	14.76368	13.13424	12.87488	41.95852	38.62804	31.59493	12.00563	10.13863	9.28281	19.90581	39.52472	35.13327
8020	7.68893	8.30459	7.22271	16.88629	18.20831	37.50027	9.00269	7.24580	7.43386	24.60610	14.21703	10.97446	8.52210	8.96184	9.19429	17.89299	21.96765	17.41418
8180	8.00776	6.87109	8.77573	19.00231	16.66996	11.07973	15.20513	10.46191	12.78768	15.84234	23.40170	16.15571	9.44905	6.98487	8.93064	24.95148	17.07190	7.64230	26.46	6.2	0.00	7.43	0.01272	0.01288	0.01662	0.00767	0.00571	0.00627	0.00467	0.01264	0.01683	0.00667	0.00678	0.00877	0.01488	0.01095	0.01195	0.00214	0.00608	0.00855
8340	6.33355	8.05598	5.15214	18.66017	17.78832	27.25629	12.71681	10.14096	3.89699	24.39267	16.44747	12.08522	8.47186	8.04132	4.22921	15.74284	10.20170	13.69649
8510	4.90257	3.14522	4.32252	12.11978	15.46090	9.30033	6.75294	5.99772	5.40926	14.16759	7.95974	13.54799	4.34184	2.99504	4.56561	10.91293	9.35090	18.65987
8670	3.92681	2.88945	5.32784	11.20482	16.41127	19.78139	10.53118	7.21297	4.44697	6.39669	6.64711	7.92946	4.79986	3.47960	4.11147	17.60715	10.19194	8.52185
8840	3.23185	1.79433	4.73547	18.47725	13.38472	18.76447	6.63837	6.39911	6.51462	9.33008	7.79179	5.56356	3.04816	2.96508	5.71491	11.10027	7.38815	21.91475
9000	3.47574	2.83048	3.59614	6.17124	9.61923	11.87876	9.18575	7.95102	6.10187	7.57570	6.94385	12.97534	7.56597	5.58066	6.91124	20.55694	14.32387	16.68963
9170	4.46276	4.13757	4.08899	18.43643	20.16326	23.02961	5.58075	7.50188	4.59224	7.39782	10.22718	10.66419	4.25914	7.17920	4.65100	18.20601	14.58954	24.73886
9330	5.63704	6.25985	5.46396	26.34386	20.10408	15.39923	11.68036	12.08961	5.62896	28.21599	13.39529	23.92249	5.84397	6.41415	6.29073	39.16277	25.19586	27.87830
9500	6.34561	4.97565	3.98161	31.49803	30.51046	17.51192	12.62520	11.14491	6.28508	20.51699	17.25947	11.23646	6.98486	3.27840	2.26174	8.86981	5.51243	8.30944
9660	1.18457	2.25881	6.33264	14.77894	12.13308	29.94323	9.97885	9.32646	12.08808	16.53237	21.66233	25.47399	9.64672	11.23498	10.76300	30.89193	45.54913	35.32733
9820	5.39529	4.55596	3.44609	28.75197	23.66136	20.20637	12.86444	8.22780	8.54778	16.07857	19.61663	17.83083	4.39443	5.38919	8.18553	32.74001	19.75816	22.04414	26.46	6.2	0.00	7.40	0.01271	0.01288	0.01662	0.00767	0.00571	0.00627	0.00467	0.01264	0.01683	0.00667	0.00679	0.00877	0.01488	0.01095	0.01195	0.00214	0.00608	0.00855
9990	5.91433	6.76980	5.73689	26.76805	25.17484	30.18465	13.44207	10.62950	8.58670	16.74980	28.24888	16.16965	7.78226	8.00868	7.23499	38.31264	38.35857	38.00383
10150	5.85426	8.21244	5.61641	17.34440	37.55715	41.89986	14.33418	10.00195	9.81691	20.89031	27.64012	17.81931	10.20222	5.49179	8.12098	26.03154	35.05466	42.45229
10310	10.02559	13.18850	10.29539	32.63112	48.36915	35.38275	16.76251	11.57752	11.02601	41.49688	38.21549	47.75011	9.55438	8.44961	9.71755	24.53494	23.29861	24.65440
10480	5.36673	4.91639	5.69906	18.55842	18.31310	19.04098	8.91835	7.74948	5.53574	37.43027	14.60316	18.08451	8.69778	5.13819	4.87998	19.83661	13.85515	20.00548
10640	7.96249	6.83698	6.71168	25.41341	21.31466	11.87744	7.55054	5.05381	6.66512	4.48812	23.24974	19.12379	9.12356	5.89425	6.42933	32.20145	38.43889	18.68978
10810	5.12230	1.88649	2.35332	20.75830	17.90124	10.24501	8.97733	8.85605	5.00620	15.71181	9.88124	9.03537	6.34338	6.57599	4.86479	8.44824	8.05651	9.68116
10970	4.50555	5.23857	3.25923	7.18486	12.81635	8.40385	8.28871	4.99947	2.97268	9.84897	9.75529	5.59479	3.17814	5.08654	6.03432	8.76270	5.95811	5.26847
11140	5.77997	4.74674	2.73608	4.86112	7.64445	8.23579	7.00093	9.59937	3.78031	13.63482	3.77712	13.84778	3.54466	2.75613	2.74060	25.43084	8.36531	15.71279
11300	5.55405	3.29204	5.94614	30.01282	27.92054	14.53905	11.24757	7.36092	6.11733	17.39809	10.82478	12.61850	6.20216	11.10866	6.18384	16.13961	16.58437	14.79120
11470	6.89312	4.75859	5.97915	6.42838	15.46652	14.52287	9.67935	7.66303	7.24139	7.70821	8.87310	7.74289	6.11251	5.48003	3.94616	23.75971	32.81253	25.70228	26.46	6.1	0.00	7.32	0.01271	0.01288	0.01662	0.00767	0.00571	0.00627	0.00467	0.01264	0.01683	0.00667	0.00678	0.00877	0.01488	0.01095	0.01195	0.00214	0.00608	0.00855
11630	4.24834	5.25778	5.42270	25.34508	47.62813	57.60512	12.45410	8.01813	8.56392	42.59264	51.81111	33.10559	8.35256	7.55983	7.10345	21.42475	28.25461	30.76546
11800	9.78519	8.09568	6.97330	14.01358	25.31343	19.32715	14.31117	10.40684	5.75004	29.32924	25.97935	19.21231	5.60450	8.48388	7.45805	16.40249	22.91802	28.75141
11960	2.59424	3.44960	8.15957	13.71844	14.36551	13.07652	16.54150	16.49677	10.83731	16.74963	34.98729	28.15207	6.62019	8.40942	11.39050	25.89401	33.81238	33.61691
12120	8.65782	6.09895	9.22739	15.44992	22.80304	23.54264	13.56391	10.88448	8.40466	13.92925	25.58459	45.62623	6.37777	5.75769	9.17281	43.19882	27.20590	38.07148
12290	7.72812	9.48233	10.83646	24.94345	31.91297	32.94561	12.07171	11.44085	13.65117	6.33382	13.01621	11.17038	7.88455	8.60814	9.06449	10.00651	11.11705	16.48528
12450	10.92133	9.78482	4.84743	14.21813	16.79914	9.25822	11.56016	12.03196	8.36957	10.00925	12.42004	16.67373	8.49955	7.62805	8.52367	31.38794	26.60095	29.30955
12610	6.83615	10.62365	6.89621	24.60727	21.83207	30.65890	15.65947	10.37368	7.87813	25.09300	15.40944	13.54930	12.15354	7.21763	7.43205	11.46750	7.68462	13.71098
12780	10.23826	5.12920	5.93675	14.16273	19.55338	12.56773	13.73542	10.13361	10.29862	24.29312	25.61398	33.90604	9.52317	8.62135	8.03080	41.76097	32.38078	24.46630
12940	8.95762	9.93922	11.59865	27.87890	29.83969	22.42562	16.48632	12.74345	7.59514	29.90868	34.16769	27.53033	9.30827	13.53235	13.08470	13.24549	20.64757	19.40100
13110	5.67016	5.50667	3.51096	11.66997	16.60508	16.71657	7.22257	5.83302	3.75187	22.24819	16.41300	17.88318	4.54031	5.67753	5.51383	15.54821	16.34005	16.00351	26.46	6.0	0.00	7.27	0.01271	0.01288	0.01662	0.00767	0.00571	0.00627	0.00467	0.01264	0.01683	0.00667	0.00678	0.00877	0.01488	0.01095	0.01195	0.00215	0.00608	0.00855
13270	3.11617	3.65444	3.28474	8.13950	7.51945	13.46297	7.16535	5.42873	4.14991	11.01317	6.46304	13.40757	4.89291	6.61820	4.38458	25.81929	16.55940	12.09569
13430	3.87206	2.96620	2.95879	15.53064	25.58187	7.16282	10.27119	7.40295	5.77457	11.21418	10.38177	11.49166	4.33200	5.54686	6.31117	26.04145	15.83160	16.35822
13600	3.10016	2.56389	3.02452	10.08040	10.20591	19.09870	7.12908	4.14815	4.60875	7.64869	6.87690	7.55364	2.98509	4.38904	4.83798	12.55625	10.36781	9.46986
13760	3.35978	2.82339	3.27141	6.98929	12.28523	11.28092	8.92972	7.25622	3.95512	7.59810	20.29066	19.84310	7.37289	8.18501	6.92928	44.02543	25.25769	16.60552
13920	7.63101	9.48776	8.19303	22.33332	39.48198	17.69453	8.53338	5.78444	6.92744	15.02243	22.38311	18.22784	5.83038	3.47829	3.11302	37.54383	36.03509	25.19649
14090	4.14639	5.71408	4.75965	16.00250	21.32097	29.31407	8.66454	7.64014	5.77860	15.20621	20.96968	16.35455	8.21286	8.51301	7.99114	18.31772	27.83007	13.00132
14250	8.30194	7.49728	6.93055	15.82373	31.64037	31.88574	10.78254	8.00656	8.29536	31.67148	28.90742	16.21493	9.65195	8.14984	8.08377	13.82617	15.71353	14.50395
14410	9.44551	11.23518	7.54985	10.44974	11.35164	9.81561	15.12005	12.31610	11.70765	8.71521	4.11446	12.51025	8.84149	9.81701	5.32762	13.77024	12.61928	26.22157
14580	4.62813	6.75875	8.20121	17.06617	24.84226	27.50651	15.81136	12.61360	10.03164	21.85106	22.20729	23.81371	8.20997	6.02203	7.72346	25.17437	27.77439	16.58168
14740	6.04677	4.95402	4.89356	35.76482	30.30558	20.02005	9.39063	10.66968	7.32164	12.06635	13.85328	16.28019	8.56094	6.76872	9.33676	37.39409	23.45850	29.08552	26.52	5.9	0.00	7.30	0.01271	0.01288	0.01662	0.00767	0.00571	0.00627	0.00467	0.01264	0.01683	0.00667	0.00678	0.00877	0.01488	0.01095	0.01195	0.00215	0.00608	0.00855
14910	8.22359	9.23163	9.16748	33.62252	56.02182	33.72000	9.91479	6.09795	4.63561	29.93452	27.35893	34.83273	5.90885	4.69937	6.01094	43.54012	25.38956	11.02763
15070	5.17147	7.82496	4.64865	11.24061	17.06478	12.42351	11.86909	9.45037	6.33931	13.02703	10.31497	11.15394	6.36688	4.48334	3.30566	14.97705	16.06257	8.97703
15230	4.83288	4.26430	5.72304	8.19988	11.35764	5.29187	11.89357	7.42886	7.82550	17.25281	33.99954	29.36072	9.53113	9.89605	7.63781	28.55161	43.08217	39.96921
15390	9.94871	9.30790	11.69277	28.02674	35.28128	20.08183	16.35056	13.80808	13.65637	36.29597	26.79812	38.79897	6.71905	7.25132	8.25574	37.64784	38.62036	42.51320
15560	4.55281	4.75638	3.06897	40.71525	27.32807	8.23931	8.58139	5.33337	3.57540	15.32411	17.65539	22.74563	3.55365	3.97218	2.52569	13.25852	7.42096	8.29810
15720	5.44070	4.03840	1.77028	31.39989	10.21208	13.81198	10.53601	6.86590	4.97249	11.42841	12.56130	14.67205	5.70662	5.24211	3.96686	24.50993	28.41014	9.72813
15890	5.70341	3.97097	3.25417	12.86854	19.28182	12.66803	8.06224	8.09757	6.11346	19.59584	20.88435	17.76690	8.69538	5.20757	3.01813	26.77200	30.21305	9.27812
16050	1.95687	2.56449	5.15814	16.26594	20.60233	17.18707	7.39922	8.32510	5.58793	21.72696	15.44990	5.54907	5.04869	3.46867	3.48041	9.20434	8.98037	13.23290
16210	5.57084	3.75366	5.61036	4.57245	10.85655	13.23379	7.48368	7.32524	10.35595	8.45302	16.18176	11.01623	8.57183	7.84683	8.94346	14.95536	21.75221	25.76517
16380	6.71727	8.49173	8.62049	11.16684	18.17014	16.52126	8.94905	8.53119	5.07258	20.91718	21.92814	18.44031	3.63353	3.41596	3.75048	28.33990	31.60938	23.71362	26.52	6.2	0.00	6.72	0.01271	0.01288	0.01662	0.00767	0.00571	0.00627	0.00467	0.01264	0.01683	0.00667	0.00678	0.00877	0.01488	0.01094	0.01195	0.00214	0.00608	0.00855
16540	2.04324	3.98962	5.52752	18.50051	17.33213	21.55582	8.53754	7.44087	7.57242	21.88433	17.28094	24.64599	4.25322	4.82520	3.74123	23.37511	21.75219	22.96044
16710	5.66318	9.75024	3.19620	34.47085	18.59174	27.58777	11.38155	9.12205	8.64288	25.80289	19.83880	20.65580	6.88441	5.26941	3.82662	29.54408	25.56124	11.82589
16870	5.64273	6.72387	2.20320	19.69914	18.19604	19.95340	8.52704	4.86258	6.61013	18.53074	33.13732	34.95902	8.34904	12.64626	8.85311	17.72788	22.73439	31.33431
17030	14.39422	11.35231	11.35979	44.50630	34.39838	23.92793	15.29429	14.46151	7.08942	40.38396	21.43747	18.56180	7.41203	6.81493	7.69544	28.50724	21.10707	10.29902
17200	5.08258	4.12813	3.55010	31.57692	28.60224	16.39483	8.55190	5.91615	5.93336	13.47639	16.53271	13.40353	3.12099	2.95555	4.46943	17.59758	14.98146	11.53716
17360	4.91988	6.56607	6.12649	6.27922	14.99991	18.87259	6.79028	6.06151	8.14665	16.46755	24.41105	21.94416	5.28295	6.59911	4.37294	33.22594	28.50025	16.49297
17520	2.19773	2.94099	2.30762	20.73023	20.28735	7.74222	5.44422	4.42494	4.46578	17.95383	22.16632	20.84703	3.98067	4.91183	4.77875	22.75417	21.32575	22.55465
17690	6.65694	6.14808	6.62912	18.21056	15.88405	13.14743	11.97751	10.43913	5.40718	15.44676	15.42553	11.07682	7.68208	5.05274	3.87278	30.89168	60.08245	32.67467
17850	5.13121	4.88012	6.39834	12.82399	17.41385	23.16459	12.09186	8.25178	3.91281	12.11687	13.57565	8.70344	4.14988	5.61999	4.09496	9.37574	6.69805	14.12036
18020	3.46767	3.91990	4.19640	23.32151	16.64251	14.00498	9.15551	10.69722	6.59327	19.88088	20.33933	24.85895	6.63267	9.65784	8.16608	58.18417	18.42645	16.40289	26.46	6.1	0.00	7.37	0.01271	0.01288	0.01662	0.00767	0.00571	0.00627	0.00467	0.01264	0.01683	0.00667	0.00678	0.00877	0.01488	0.01095	0.01195	0.00214	0.00608	0.00855
18180	7.06761	5.54023	5.65242	29.60284	40.11093	30.89935	8.01256	7.67638	8.42208	23.91556	20.33654	18.66021	8.13899	5.30748	6.12518	24.04950	17.22708	17.11071
18350	4.71865	7.51179	6.08300	17.41908	20.90477	6.15186	15.08971	10.66530	7.72727	15.38730	13.74527	20.63286	9.19920	6.99004	7.57701	23.87690	24.18598	19.97462
18510	3.94893	4.38855	6.41613	14.66313	17.83959	31.51873	10.10888	7.14975	11.02200	24.31233	22.90550	24.68788	7.22061	8.47394	6.81361	24.33356	24.33558	24.30026
18670	8.82513	6.75284	6.97392	20.32748	20.58937	13.66056	9.14382	11.13442	7.02334	13.24650	10.10989	13.99807	6.83885	7.24372	6.80480	26.58242	24.15346	16.37944
18840	3.93709	3.71214	3.38755	14.90814	12.02081	17.52846	8.37093	6.20061	6.41007	11.69983	23.64421	18.64074	9.97934	3.56597	2.89377	29.47244	16.63555	20.23673
19000	3.75162	6.81516	3.09807	12.60023	17.49842	25.01113	9.64855	5.27063	4.10955	18.75228	9.96921	8.94914	6.76093	4.32384	3.29766	16.25632	10.79869	7.09904
19160	3.23629	4.01413	4.70986	12.73401	13.64569	11.18918	7.68257	7.27747	5.04493	36.04145	14.61769	18.23228	6.88903	5.71399	3.75874	30.56663	26.65039	15.28515
19330	4.88646	5.31278	3.70127	19.49197	9.48495	15.35174	7.81320	6.73418	5.18475	9.88392	8.46476	12.65317	3.32178	4.66147	1.66410	11.37374	10.58287	7.44790
19490	2.14825	3.70319	2.88147	7.82654	9.89758	12.54520	10.34599	7.13710	7.97138	7.87820	16.12963	27.96212	7.88518	6.46321	6.79745	23.31046	7.91149	6.11965
19650	3.33304	5.71407	9.38982	27.55617	16.09106	21.34746	14.58974	11.55386	9.71123	20.22351	22.50276	14.96786	4.83947	5.95908	6.96543	29.98341	34.46629	36.82543	26.46	6.1	0.00	7.33	0.01271	0.01288	0.01662	0.00767	0.00571	0.00627	0.00467	0.01264	0.01683	0.00667	0.00678	0.00877	0.01488	0.01094	0.01195	0.00214	0.00608	0.00855
19820	6.37175	8.16189	8.97269	37.20597	28.10480	29.38938	13.31154	16.85592	8.83090	35.88830	26.75642	19.26970	8.77100	6.90375	7.34344	40.95888	31.33503	23.43125
19980	9.92422	8.80321	5.08578	38.01850	38.09398	29.00607	14.19565	10.05639	5.13793	21.42224	33.91680	30.08013	6.96366	6.52524	5.91234	31.18630	29.75374	20.78053
20150	7.85285	4.47962	5.34658	10.98968	15.70763	15.82215	13.97716	9.26914	7.57893	20.08738	16.59598	22.86224	6.25912	6.01160	5.63289	23.16908	13.70110	19.85781
20310	5.05522	6.01810	2.57502	12.33645	9.61786	10.04268	8.26263	6.45828	4.71328	18.81694	25.06244	16.78425	3.23311	2.85085	2.62696	19.86533	35.37260	23.64446
20470	3.04462	3.18733	1.31535	26.25816	24.88956	18.39109	6.26706	6.88451	5.58007	14.36014	14.25440	17.71657	3.25160	4.55545	3.67671	21.22023	17.39062	13.70891
20640	4.51103	7.39684	7.37368	20.23603	14.64388	26.18984	9.18704	8.93499	10.28741	23.17771	18.91047	18.81376	4.03337	4.78479	7.24387	24.70789	25.52472	18.02872
20800	3.11186	6.09832	6.94818	20.59701	24.77005	24.05878	12.15163	7.69513	12.07214	16.50018	18.43169	18.72024	12.13924	8.93480	8.05770	19.64907	26.33695	29.58591
20960	6.36469	6.75093	5.80203	8.99174	14.81067	21.72529	9.73613	7.70602	6.92146	6.75868	14.42315	26.40685	8.15513	6.57389	7.42249	19.54723	19.05209	23.86063
21130	7.69152	6.54187	7.41348	32.76018	40.11266	29.69576	10.88117	9.29711	5.34015	10.61339	9.20765	6.06203	6.46445	4.92788	5.58434	19.21427	13.67337	15.66576
21290	3.79307	3.31372	4.23445	26.89330	37.98859	18.73540	13.51738	10.13032	6.08265	27.66557	23.33958	22.46062	7.52332	7.26213	6.22939	33.12200	24.89996	38.47411	26.52	6.2	0.00	7.29	0.01271	0.01288	0.01662	0.00767	0.00571	0.00627	0.00467	0.01264	0.01683	0.00667	0.00678	0.00877	0.01488	0.01094	0.01195	0.00214	0.00608	0.00855
21450	6.84020	8.45563	9.49070	23.26068	26.79338	22.52862	12.10776	9.31945	8.17974	29.87173	23.20345	17.34283	7.91745	7.00346	7.57144	34.95522	23.96029	27.18649
21620	3.53322	3.66219	3.74297	16.05287	16.28591	11.98799	10.75333	9.30623	5.63459	13.18434	10.91630	6.55868	4.81557	3.91681	2.34866	22.54700	20.65834	25.21978
21780	7.78992	3.64715	8.46396	18.21217	27.59886	26.19975	11.81502	12.52731	11.03088	14.36717	18.55429	27.58189	5.02595	6.75452	5.10631	30.43287	28.49392	22.08624
21940	2.55059	3.83306	3.13239	13.94295	15.95846	19.40868	6.16469	4.54375	4.72994	9.61528	13.90094	22.83131	5.25641	4.10492	5.04314	15.93161	15.67061	6.28687
22110	3.52324	3.04588	2.98071	9.01014	17.75916	9.80207	7.21560	5.29456	8.01543	15.67734	15.99074	21.01477	5.44299	4.22323	7.10224	11.34069	17.97629	15.52464
22270	3.81832	6.66876	6.46524	17.96818	13.69435	13.69977	9.49062	7.71862	8.80504	19.67583	12.79420	13.84608	6.40668	5.41016	3.75891	12.30769	19.73506	29.87008
22430	2.16802	3.26369	2.60737	35.83916	25.73895	25.80284	9.70156	6.92971	8.43556	22.67876	27.82820	23.49291	6.22399	5.57830	5.97432	23.21460	18.73705	14.29476
22600	4.83377	3.07275	7.63365	7.08246	24.66001	32.21544	14.04911	8.27540	5.63675	14.76800	16.02331	12.84287	10.25977	9.35664	7.87176	27.23488	27.35889	21.26094
22760	4.88565	3.80394	3.30351	18.19465	12.08859	12.08012	11.15734	8.58371	5.21505	20.25211	11.68843	14.30757	5.34710	5.73716	10.20911	19.91890	9.63272	9.48784
22930	5.48991	6.26705	3.90410	13.43685	10.59595	17.80795	8.85189	7.46169	9.42092	33.68166	22.22632	26.73333	8.38687	8.67014	10.33426	42.57085	37.00870	23.28978	26.52	6.1	0.00	7.47	0.01271	0.01288	0.01662	0.00767	0.00571	0.00627	0.00467	0.01264	0.01683	0.00667	0.00678	0.00877	0.01488	0.01094	0.01195	0.00214	0.00608	0.00855
23090	4.51318	4.52812	10.42138	18.09894	17.99181	24.97403	12.69183	6.70795	6.05900	14.49738	13.05922	14.18831	6.57368	5.39831	2.97745	35.52749	24.22416	21.01396
23260	3.36897	5.44043	5.13107	27.20341	25.32891	20.11829	9.08131	5.43263	13.37682	13.89717	18.26214	21.03309	9.19802	6.37674	9.46910	21.43314	38.44258	28.63841
23420	4.98456	8.41881	3.67950	15.43506	22.87207	37.91357	11.08229	8.62466	5.47993	32.00044	31.38081	36.07938	8.61900	6.68115	6.48628	30.90307	41.60442	32.90984
23580	4.50946	4.42963	5.04365	34.43085	40.43331	24.83186	10.07612	8.29330	8.92662	55.03480	21.59447	29.73546	8.83708	8.24085	7.96803	35.12256	29.85416	28.27187
23750	6.42470	6.52718	8.57749	32.69583	20.11274	39.07928	15.12547	13.20024	8.02606	16.21951	13.07288	20.84796	4.13987	4.96435	5.92861	26.36300	21.81159	14.92446
23910	8.53177	5.93622	6.71008	13.85154	17.94732	17.88691	13.47135	11.25906	8.59570	15.95005	8.63946	26.64803	8.29989	8.58596	7.41696	27.12782	36.29779	27.19212
24070	6.06018	5.71615	8.60535	35.09526	19.28086	16.20384	12.33176	12.13798	9.79876	33.35173	48.97428	26.29616	4.88627	8.93639	6.87061	30.15288	34.73018	21.97687
24240	5.81168	5.03298	6.51704	35.77330	37.36392	16.68304	9.53491	6.76152	6.65815	23.56175	23.44737	18.91932	5.89786	5.53736	3.79736	16.41198	26.22355	26.16831
24400	3.08677	5.22601	4.89909	27.13263	14.84771	22.45701	12.10486	8.13363	6.58576	15.16100	18.68776	31.27715	8.01986	3.91397	3.80003	18.83170	16.08900	14.77391
24570	4.43917	4.52352	3.88055	7.71916	11.05131	8.64438	11.60443	6.33914	7.10685	22.43777	10.17248	12.83949	7.54045	6.53732	3.83505	17.47103	7.99597	11.50181	26.52	6.0	0.00	7.31	0.01271	0.01288	0.01662	0.00767	0.00571	0.00627	0.00467	0.01264	0.01683	0.00667	0.00678	0.00877	0.01488	0.01094	0.01195	0.00214	0.00608	0.00855
24730	6.32283	6.69232	5.65324	9.03712	6.94781	13.05318	9.94824	9.28380	8.34733	10.99144	11.61570	8.07461	4.04560	2.64209	2.80408	15.12600	9.97490	5.64888
24890	4.64266	3.17802	4.86704	6.06055	13.95782	24.30915	7.57849	6.46284	5.99862	4.45156	6.39783	12.66316	3.21195	2.84023	2.45949	13.30612	10.81726	13.54194
25060	3.16791	2.43864	2.44595	5.59010	9.84065	6.61391	11.37451	7.68337	5.80790	15.78811	2.78506	4.78529	5.54847	5.77769	3.65320	8.04168	6.34846	7.01341
25220	3.33910	2.55244	3.44689	19.69068	18.37048	16.42399	10.21006	7.04078	6.75254	27.95735	25.84892	27.47537	7.26002	6.26863	6.76055	18.53224	18.62270	20.91756
25390	5.15820	3.63268	5.78353	18.90032	18.30295	12.71408	15.33124	11.70289	7.80097	20.55928	19.55927	22.12949	9.44443	8.46068	11.42550	22.59367	34.78094	18.43725
25550	7.77558	6.70218	10.51895	42.86311	39.01200	16.66546	14.77911	9.44574	5.46240	22.23295	20.51090	32.13725	11.74088	8.21848	6.64951	39.97438	33.06696	20.99647
25710	6.68488	8.73537	9.63355	20.85219	28.30400	26.25552	10.55857	8.68059	11.83558	25.36514	27.87417	13.55870	5.67420	5.12280	10.22741	14.90210	38.00030	21.28294
25880	9.07700	5.63945	7.52774	20.86984	28.52079	25.63494	9.82522	12.80412	6.15857	34.64984	25.09259	18.81284	4.99833	6.42276	4.14416	23.91021	30.86840	24.86364
26040	3.19134	2.82325	1.51217	25.54577	27.61291	24.42698	6.58301	5.81033	6.17272	19.99048	16.25875	26.63248	5.32007	3.46426	2.40078	24.73135	17.84503	14.82576
26210	2.15234	4.86772	5.39882	12.44593	15.02458	18.80044	8.85979	4.98732	7.92153	26.52218	19.57951	12.01551	6.94115	8.00841	11.45171	25.94948	30.34569	23.27607	26.52	6.0	0.00	7.35	0.01271	0.01288	0.01662	0.00767	0.00571	0.00627	0.00467	0.01264	0.01683	0.00666	0.00678	0.00877	0.01488	0.01094	0.01195	0.00214	0.00608	0.00855
26370	6.15591	5.39927	7.36551	36.80354	37.65246	29.38670	8.59090	9.88932	8.48592	47.35866	25.50408	27.24190	12.14291	9.31755	9.62407	32.70113	32.37582	22.63662
26530	6.60309	7.40076	8.36687	24.34442	27.23686	32.80236	10.29858	8.58687	6.69315	27.63916	35.75016	32.57673	6.61211	10.61042	13.44747	26.22830	19.67331	15.59800
26700	7.74601	5.02156	2.58769	42.74894	31.67764	25.06639	12.52795	8.28535	11.47982	26.14949	29.72697	40.22262	4.78182	7.01657	10.12775	42.63535	30.75646	18.45148
26860	9.23195	6.17019	4.85735	20.18438	12.00293	10.75318	9.19756	6.92162	5.16173	24.81445	14.13765	11.40397	5.04829	6.61827	7.63816	25.34070	20.50497	49.40459
27030	7.04616	3.77271	5.40402	20.38037	26.56906	16.65575	9.22853	10.47811	9.41096	23.82135	22.58139	37.86179	2.17819	3.94388	5.35542	19.19466	19.02475	17.96964
27190	6.17366	6.85809	6.08474	21.39626	23.89663	34.28754	17.92750	10.14951	8.49281	17.44787	21.67978	36.62861	12.12431	9.01955	9.45728	14.25559	14.83815	27.41608
27350	8.23636	6.01601	3.61582	18.40179	20.79869	14.72739	9.24339	7.73357	8.37420	16.27374	23.52280	16.92721	7.75292	8.00413	5.03802	13.07429	24.38737	34.09746
27520	2.55148	3.73132	5.06237	31.94819	25.59718	14.68122	10.77681	8.51132	6.13832	13.74624	13.78848	9.71003	7.70520	3.82972	3.24459	15.62519	6.55294	5.85773
27680	5.27036	2.61977	1.91782	7.30052	6.48436	9.37696	6.00075	5.11341	3.36188	8.63102	4.06562	5.41541	3.48168	2.80275	3.06087	14.88590	22.91571	18.83901
27850	2.27802	2.19871	1.33918	28.66525	18.49967	18.71937	8.68109	5.20075	5.02837	10.69668	11.75047	17.05595	5.53045	5.74489	6.98872	24.36115	18.46531	18.33172	26.52	6.0	0.00	7.37	0.01271	0.01288	0.01662	0.00767	0.00571	0.00627	0.00467	0.01264	0.01683	0.00667	0.00679	0.00877	0.01488	0.01094	0.01195	0.00214	0.00608	0.00855
28010	7.25321	7.37622	8.27911	20.07852	21.31637	26.29195	8.15965	7.88300	9.00283	34.42042	26.62508	37.13071	9.68633	10.44337	7.67884	36.86603	67.78543	28.90995
28170	6.74944	8.78060	9.42586	53.83760	40.28095	39.37396	15.51666	9.33894	7.14998	18.47595	11.25963	24.92646	6.77914	9.51048	9.62123	34.03172	37.61090	43.77410
28340	6.15403	3.66243	8.12953	42.74570	56.88209	30.62728	13.01805	7.63523	9.68746	35.72025	18.44505	28.81574	13.37611	12.51025	11.69054	26.26600	45.86094	48.49431
28500	12.33357	8.25051	5.49152	22.25810	23.91764	31.42875	13.54290	11.36745	11.03706	16.99558	23.75049	37.19898	12.02088	7.59427	5.00600	35.02793	20.94193	22.61943
28670	4.41237	6.42548	6.88500	35.82584	24.15844	16.09081	12.48124	12.74849	10.05307	26.85133	20.18779	32.89027	10.46345	12.15270	9.92658	24.55919	16.99834	23.03804
28830	7.03229	9.34754	7.52087	19.39970	19.66417	20.66637	8.00556	10.25986	5.45764	14.30464	4.00413	4.01964	4.38390	5.77070	5.18606	20.27892	17.01365	9.12297
28990	4.77567	3.53115	2.92314	8.26178	5.47551	10.23085	7.23459	7.07656	5.29968	9.08980	8.54508	9.52884	5.22384	5.10352	2.49404	10.05692	16.45331	6.97930
29160	2.00443	1.79748	2.45483	5.11616	13.85070	10.55033	7.12230	5.45096	3.83993	12.28834	9.27158	12.26816	2.34924	4.00249	3.30738	12.46333	11.41624	10.50932
29320	4.34564	2.79534	3.86380	10.60868	6.12247	4.86873	6.71163	5.66819	4.46849	4.96791	4.34449	5.68372	2.94052	2.70298	5.00981	14.46094	10.05050	13.56990
29480	4.90030	3.88027	2.64279	16.25053	12.82480	15.29325	7.12541	8.06665	3.56875	7.47043	15.76666	9.02311	4.49305	6.35984	3.47785	16.53996	8.80103	6.90662	26.52	6.2	0.00	7.34	0.01271	0.01288	0.01662	0.00767	0.00571	0.00626	0.00467	0.01264	0.01683	0.00667	0.00679	0.00877	0.01488	0.01095	0.01195	0.00214	0.00608	0.00855
29650	4.40363	5.31913	5.43204	6.00205	8.65704	12.83567	9.26700	6.60526	4.57464	21.31675	14.36934	6.61895	3.85879	4.44181	5.72422	26.04483	21.98547	15.92995
29810	5.04550	5.81407	7.49370	26.03674	27.34935	13.06812	7.63467	6.51399	6.71710	10.51371	22.06463	6.97438	4.98956	8.05812	4.20022	17.64643	10.12772	9.43518
29970	7.78259	6.15437	4.60630	25.29503	27.48611	14.49716	11.42936	10.03868	5.17990	26.42008	22.51806	15.98917	5.28464	5.17769	8.50061	15.41388	8.62048	6.02015
30140	5.13453	3.89445	3.03045	4.37323	9.15451	17.27694	11.98101	10.27487	6.10946	11.84027	11.65789	15.91223	6.36520	4.58488	3.72764	22.34092	27.69509	29.24496
30300	6.49776	4.82016	4.33867	27.74442	24.09328	25.20073	9.02527	5.36903	5.44910	11.31991	7.17741	16.60287	6.62388	4.44244	1.95670	22.21622	14.07562	24.57666
30460	5.39449	2.21515	4.09462	24.77393	20.81594	16.97597	7.52391	7.89083	4.75870	20.99441	22.56897	20.72677	5.11804	6.70617	4.05865	12.81024	14.13051	21.83912
30630	6.39419	5.35189	6.11148	29.98509	21.55402	24.38639	13.13498	9.68421	5.90255	22.73446	52.35773	43.34900	5.30095	4.23558	5.32154	44.72493	66.46404	35.46259
30790	8.30641	7.17394	7.58352	23.86391	22.88855	21.17828	9.94951	8.35380	4.52289	21.54624	12.14223	10.70953	3.02046	4.99891	4.78934	36.39931	25.14190	16.33121
30950	5.27059	3.25401	5.47972	10.40347	14.82337	22.77256	8.85080	5.99711	4.83540	19.55340	20.41681	23.29471	8.59281	4.58039	6.36969	38.36290	20.93982	20.15596
31120	5.32106	6.90710	8.52153	29.95231	30.74093	23.97326	13.77128	8.05226	9.95854	15.07788	18.82125	28.97708	9.66209	7.18090	7.39987	48.85465	41.74943	18.77320	26.52	6.1	0.00	7.32	0.01271	0.01288	0.01662	0.00767	0.00571	0.00627	0.00467	0.01264	0.01683	0.00667	0.00678	0.00877	0.01488	0.01094	0.01195	0.00214	0.00608	0.00855
31280	9.36311	7.52004	8.57451	30.43101	36.33034	29.26821	8.53239	8.19292	7.39966	22.58259	26.02313	26.62614	7.43256	8.45145	8.88635	30.41438	20.65054	22.67243
31440	8.59267	8.03480	4.69286	18.08192	12.73455	29.54526	8.90266	7.91544	7.48439	15.40366	19.60507	16.70837	8.14854	6.84229	4.87901	35.96971	20.00033	16.81583
31610	4.02520	5.12555	6.79370	41.56522	28.28692	32.88053	8.63807	11.25036	5.23769	53.58353	27.47953	26.23248	6.71427	9.29542	7.22912	32.37213	46.77598	32.60157
31770	9.45334	9.42795	7.23663	26.20555	39.82872	40.80426	12.71117	12.00437	8.67949	14.64386	25.56441	35.01769	9.17149	6.49086	7.57619	47.35557	37.58363	46.09525
31930	6.72883	4.57003	8.26473	26.37099	31.64192	35.46154	10.92013	6.53856	5.33089	26.24761	10.66463	14.65441	2.95387	2.88642	3.74278	18.73097	14.62870	6.87160
32100	2.66691	4.46179	2.81863	18.97521	18.56837	7.70667	7.36883	7.17337	5.00178	24.32219	8.32813	6.12883	3.07039	2.89200	2.68051	12.45015	10.14531	11.68083
32260	4.09804	4.86526	4.06872	13.17910	13.17107	16.59268	6.26380	5.81288	5.04597	13.00198	21.85632	14.63511	5.51505	4.83136	6.31460	14.35374	14.89377	23.59047
32430	5.37915	5.99619	5.88068	20.84232	24.01200	18.26869	7.32776	6.10562	4.27452	16.79130	18.64683	19.53423	2.99160	6.76197	7.21361	18.33936	19.18613	11.51453
32590	4.81809	5.77655	9.62585	8.67932	12.12930	10.57434	12.49046	8.41609	6.85523	12.88312	14.77946	10.73513	4.83481	4.35124	6.85029	17.90163	15.01827	9.11182
32760	6.74525	4.37286	5.68240	6.27921	8.62817	13.28825	11.58892	12.85853	7.22755	20.39865	7.25702	11.81503	3.14796	6.35322	5.52020	27.43884	20.11501	11.63287	26.58	6.1	0.00	7.32	0.01271	0.01288	0.01662	0.00767	0.00571	0.00627	0.00467	0.01264	0.01683	0.00666	0.00678	0.00878	0.01488	0.01095	0.01195	0.00214	0.00608	0.00855
32920	4.79514	7.82170	5.55838	20.01505	30.80481	29.12829	7.87664	7.43354	3.42598	32.25654	15.74936	13.84339	5.02575	5.23397	4.17595	10.83964	32.10150	14.50159
33080	5.70315	7.04192	9.51808	18.78920	19.99505	14.09898	11.21667	12.98382	13.52778	20.27014	29.61048	39.34041	10.65735	15.44455	14.21727	51.97950	38.09717	63.11335
33250	17.69559	10.71908	13.82320	32.00993	36.44348	21.59913	16.93116	13.12808	9.55126	36.36838	28.36725	29.75420	8.56885	5.83084	5.83319	18.01844	31.05825	24.89937
33410	8.26364	7.90897	11.01476	22.46151	22.76270	22.01646	11.90156	13.06350	10.45414	28.79535	26.25626	24.15464	10.84780	13.66468	12.14621	25.15387	38.12757	41.51118
33570	9.15978	10.93380	9.91908	21.34930	11.76135	9.88325	12.56392	6.94317	5.74985	15.65174	13.74865	11.80144	6.67610	4.45334	5.01036	26.90982	36.57115	18.49227
33740	7.32302	5.13555	5.21853	37.22342	30.74713	25.49534	8.92345	5.22237	2.87000	33.23866	9.57003	6.98912	2.93716	5.79256	5.66556	18.19568	25.24036	19.60682
33900	4.74019	2.26317	2.96598	13.08941	19.28165	15.13895	8.90956	10.58465	6.43872	13.24669	13.82991	13.57383	6.70714	5.71660	5.58604	15.97286	10.39538	13.95484
34060	3.69242	2.83843	4.02031	22.19863	3.99913	5.03842	9.69531	7.96927	4.57062	5.57512	6.13336	4.30232	1.89565	4.34672	3.16982	6.89401	7.01567	12.54952
34230	4.11962	3.50788	4.19046	14.72507	26.29006	20.19679	6.29379	7.66747	6.57648	41.09919	31.80111	23.59297	4.45639	6.93828	7.37864	24.97847	14.55868	14.49445
34390	4.98652	3.76147	5.15902	27.01046	28.85478	17.53762	8.40671	7.32041	4.62253	19.67548	20.37610	20.15043	4.18029	5.92063	5.81525	15.60133	15.85447	21.55440	26.52	6.2	0.00	7.38	0.01271	0.01288	0.01662	0.00767	0.00571	0.00627	0.00467	0.01264	0.01683	0.00666	0.00678	0.00877	0.01488	0.01095	0.01195	0.00214	0.00608	0.00855
34560	5.54965	5.98458	4.75408	12.40354	15.22301	12.54036	8.52877	5.76049	4.97816	17.23102	18.74720	22.18724	8.32638	6.82967	6.26310	17.15443	21.99837	18.31591
34720	4.51058	3.87168	7.57762	9.32681	25.28340	21.27271	9.00712	8.57660	8.15852	14.08370	18.03993	18.14323	9.14052	4.74069	5.56835	11.92158	19.52482	17.29853
34880	3.17841	5.13910	3.31703	14.08371	17.68824	18.38581	9.69364	8.77920	8.42947	17.32883	41.90488	33.86790	9.86547	5.39705	6.75736	23.98245	23.82287	13.84265
35050	3.76471	4.15007	5.36125	16.18390	14.87721	23.17913	8.00385	9.90921	6.40601	13.10942	11.41929	20.98399	7.32024	9.21876	10.83326	65.63158	31.96876	73.96049
35210	5.94817	11.71667	12.80900	25.24878	33.34460	42.96250	15.34931	13.22950	9.39218	40.16316	24.95718	28.61683	7.85272	9.71636	6.29336	34.62751	43.17628	26.63357
35380	6.55712	4.54978	4.20888	24.20522	13.29599	23.67896	11.17380	10.19116	6.60622	10.75476	15.01869	20.05287	4.23560	3.20412	4.97572	10.54957	13.04083	13.64540
35540	1.43104	1.18975	1.52441	16.90666	14.13029	13.05977	5.55750	4.49893	2.78179	6.96774	7.59740	5.41623	4.44749	3.58844	2.56679	10.22559	8.82589	6.08933
35710	4.71919	3.94683	1.44837	7.95643	12.64994	12.68427	8.28707	8.32450	5.87874	14.02277	16.96226	8.60779	5.74700	4.69834	5.67209	11.84253	20.19196	17.51499
35870	2.41503	2.81368	4.49080	19.27127	24.72176	13.07184	7.64125	5.81421	2.69770	21.09581	8.06346	9.87353	6.60348	3.65315	3.12977	13.87677	12.90150	12.50310
36030	5.38426	4.92199	3.08116	18.76063	15.33443	13.92937	8.82627	5.02963	5.17188	17.89455	24.13163	10.93334	5.18322	5.48286	4.85218	15.61519	20.05409	21.07801	26.58	6.3	0.00	7.31	0.01271	0.01288	0.01662	0.00767	0.00571	0.00627	0.00467	0.01264	0.01683	0.00667	0.00678	0.00877	0.01488	0.01095	0.01195	0.00214	0.00608	0.00855
36200	2.90384	4.07321	3.72019	9.31262	10.03337	6.83485	9.03171	6.07828	4.56112	9.00841	17.15927	16.78438	5.68939	5.66701	5.36482	13.71104	22.78648	17.27432
36360	4.86804	4.96341	5.58008	21.02093	17.36005	16.86419	11.33954	8.34166	2.94440	19.79450	13.89110	17.80742	3.47853	3.56808	4.32712	26.33948	13.28618	14.20348
36520	5.41125	7.24749	10.47054	17.05140	15.59221	19.42857	11.68014	10.75495	9.02364	26.13469	26.63008	21.25405	8.48888	3.95521	7.02911	21.97710	31.95815	24.74808
36690	5.80436	4.32930	7.69704	15.44562	18.99483	24.79403	11.20798	8.03486	5.41664	23.01505	17.09477	13.43161	7.37850	8.75158	7.67414	17.10832	18.79559	24.15785
36850	8.47827	10.32915	10.36011	25.90437	35.55010	39.44504	17.64941	12.11864	10.48589	33.44022	65.90620	40.92274	9.34732	9.19489	12.94471	36.64731	28.51340	50.16310
37020	10.48959	10.30425	10.24166	23.88024	21.51955	16.43450	11.44672	15.35966	11.81187	14.23418	22.78671	31.72966	6.57535	4.72527	8.89384	61.13842	23.47652	21.54168
37180	4.99754	6.00436	7.05443	50.02701	34.50034	18.82622	9.58053	5.46382	6.08425	11.66847	13.80820	13.89422	4.51855	4.63567	4.61779	22.33003	20.76900	16.52165
37340	2.96106	2.83906	3.68130	10.15961	9.77808	13.88846	8.20478	7.07595	3.71639	5.67477	4.13557	11.95891	6.94697	5.87893	6.47187	9.49173	9.22910	33.96730
37510	5.68591	6.80357	4.57703	9.94778	26.68888	19.04177	8.29720	5.37402	5.32749	21.84736	17.44335	12.69401	5.06744	5.76736	5.14683	12.20248	20.60319	8.58185
37670	3.41097	4.35734	5.28031	10.18684	8.73739	9.12704	8.40072	10.52715	8.08068	12.43193	18.42248	13.00450	5.57948	5.74151	7.07624	28.68611	11.50445	10.55971	26.52	6.2	0.00	7.30	0.01271	0.01288	0.01662	0.00767	0.00571	0.00627	0.00467	0.01264	0.01683	0.00667	0.00678	0.00877	0.01488	0.01095	0.01195	0.00214	0.00608	0.00854
37830	6.18323	4.32974	4.70262	14.17800	9.83517	28.71451	7.67087	8.06360	7.33654	34.88797	12.88431	18.32045	6.68257	6.38991	8.92420	50.16425	76.75425	37.23435
38000	6.14647	7.74635	9.60698	23.33545	23.59720	27.76923	14.27686	8.69635	5.88831	64.57756	32.76070	31.43126	7.03022	6.81793	6.67276	22.22878	22.94781	28.80596
38160	8.75163	8.78132	5.02895	19.88800	12.61974	17.51791	12.10508	7.03903	8.40878	22.13628	17.86467	30.60257	12.47923	10.64527	7.70359	54.96438	36.12780	18.77693
38320	8.31323	10.28081	4.75996	29.77571	21.38001	10.71367	10.92991	8.87067	6.04970	10.26653	8.80987	10.66947	8.06178	6.75212	6.09159	13.51748	18.03235	25.60043
38490	6.62225	3.53021	4.11977	11.01085	15.00243	14.67842	12.10793	11.09170	5.18390	18.38470	19.65744	16.59408	6.27648	7.62815	7.02167	24.30043	28.29048	17.92155
38650	5.28854	4.01792	5.79208	21.04766	21.27511	8.26507	11.56218	9.73064	9.61584	10.38918	10.21275	11.32528	3.24954	7.37234	5.85570	24.68886	23.26303	24.18262
38810	5.94807	5.84558	4.26293	12.99528	13.31358	8.20680	11.59903	6.01230	3.33047	14.10729	12.30634	16.51035	3.76450	2.95279	2.18889	11.22947	13.40310	10.70861
38980	3.36907	4.50442	3.19656	11.06159	15.79293	9.60243	8.63601	5.84299	6.12090	22.04817	13.10072	4.86578	5.65120	6.37793	6.36072	13.43790	11.98334	14.48694
39140	3.67312	2.43488	2.30428	11.95691	19.31145	16.81231	5.81046	5.11615	6.22498	17.24652	15.48375	20.41644	3.20297	3.24363	3.05222	6.33247	6.48725	12.72357
39300	2.40956	2.03774	4.41615	10.40670	9.29940	11.61895	8.88587	9.61991	8.75613	11.36448	6.92069	7.11575	7.95811	7.13737	5.22565	12.08981	12.66936	8.41098	26.58	6.2	0.00	7.34	0.01271	0.01288	0.01661	0.00767	0.00571	0.00627	0.00467	0.01264	0.01683	0.00667	0.00679	0.00877	0.01488	0.01095	0.01195	0.00214	0.00608	0.00855
39470	7.07650	4.96216	6.90034	14.21212	9.89437	9.01876	9.17689	7.27681	4.66692	10.35683	10.02680	11.23680	5.18380	5.00078	3.63110	10.88939	25.00482	11.35224
39630	1.66981	2.64773	2.40276	19.19887	10.74025	22.58566	10.40059	6.93596	4.87769	19.48514	20.27101	20.39973	5.82366	3.96302	6.82099	22.02485	18.21251	10.72456
39790	2.98324	4.69977	4.86049	15.72037	14.03021	8.51455	11.95593	7.88573	7.70706	19.79664	16.12327	13.84531	3.66773	3.11387	2.63138	17.47805	14.74267	16.95070
39960	3.09967	2.84380	2.62478	14.87047	8.42832	8.99122	6.19743	5.42893	6.39919	15.55978	7.74770	12.63976	2.93116	4.55375	3.57146	15.50059	16.60130	7.78913
40120	3.09003	3.31537	3.56243	2.92651	8.49851	11.27220	6.51411	5.60688	5.76209	8.66975	13.43281	19.27706	4.04664	2.52133	2.34271	21.02359	18.27831	24.57376
40280	1.68364	2.07871	3.54354	12.36744	18.58120	14.75031	8.01662	4.36140	3.91260	14.62108	10.33592	12.16871	5.75234	4.12667	4.58736	14.75207	17.27897	32.12710
40450	4.21365	3.29597	3.74468	24.29776	20.16016	9.65928	8.75761	5.86823	3.66978	28.28391	26.62831	30.76113	5.29855	2.66898	3.06132	14.74842	13.12566	15.81887
40610	3.91478	2.88711	6.25487	34.10039	19.56480	24.66653	9.18465	12.75795	10.90760	24.88527	16.28714	23.78161	7.08542	6.00064	7.88208	45.70055	26.69100	29.31211
40770	7.26310	5.45435	3.95219	12.13494	15.96359	13.11084	9.43702	7.46688	9.51485	13.00844	17.76037	15.87134	5.62643	7.00228	6.88123	16.81965	20.95129	16.89023
40940	4.72494	8.99260	6.73080	27.61394	33.15858	18.95020	9.51003	6.80360	9.03443	24.99690	9.43992	19.14901	11.90269	9.24455	5.17844	38.59793	18.74239	24.43172	26.52	6.2	0.00	7.34	0.01271	0.01288	0.01661	0.00767	0.00571	0.00627	0.00467	0.01264	0.01683	0.00667	0.00679	0.00877	0.01488	0.01095	0.01195	0.00215	0.00608	0.00855
41100	5.26830	5.93853	3.63867	19.14322	18.84763	27.68153	9.49216	9.09549	5.34515	18.20430	18.62944	19.03082	5.21601	5.98554	6.19470	21.95199	45.30856	22.37914
41260	8.86371	8.94732	7.05779	14.24030	29.86926	23.37252	10.19585	9.99351	7.34182	31.67617	20.02283	15.22490	5.91760	7.14809	6.96056	13.59597	8.80622	13.61284
41430	3.42199	4.09353	3.64390	12.44356	26.94839	18.71319	8.61924	6.94885	4.87033	5.41953	7.74392	7.70897	4.09993	3.49438	2.89359	6.67300	11.65377	12.84814
41590	2.02774	1.77822	1.81459	18.31875	19.04861	18.74264	13.15618	5.31948	5.96798	9.73263	15.62037	20.42077	6.80288	11.07227	11.10325	45.66169	24.56815	25.28077
41750	5.40298	4.92692	6.60003	19.91144	15.87727	16.90891	10.67260	9.13580	8.82136	14.51818	12.77607	22.49661	10.16277	9.93725	8.87307	17.64103	40.09291	17.11411
41920	7.87001	8.92525	9.17823	20.10643	11.03460	17.28994	7.02625	8.10116	6.90893	14.92483	24.01317	11.52701	8.46237	8.13805	4.89859	19.97075	22.50714	19.49091
42080	4.86299	7.01177	8.29137	30.44759	24.73555	26.70942	11.14399	10.62487	7.74270	9.84172	17.31109	21.37137	5.01197	8.60740	8.00723	10.83543	17.97885	15.63960
42240	4.16546	5.68239	10.69994	12.84254	15.29722	9.42269	6.39498	8.17656	9.01944	8.88163	6.29278	11.74484	10.46188	9.02360	7.39733	18.89946	28.53900	21.69993
42410	3.11327	5.18916	6.16384	15.97393	11.75825	14.39948	5.28000	5.31736	5.66343	8.64793	10.74900	9.15566	5.54145	5.04927	4.61600	25.07742	29.47687	20.76829
42570	3.19259	4.55639	4.59511	18.51296	21.81172	22.60872	11.30444	9.90326	11.15065	15.35559	14.72991	11.86418	6.71509	4.37536	6.72711	18.30205	22.67701	10.16587	26.52	6.1	0.00	7.31	0.01271	0.01288	0.01661	0.00767	0.00571	0.00627	0.00467	0.01264	0.01683	0.00667	0.00679	0.00877	0.01488	0.01094	0.01195	0.00214	0.00608	0.00855
42730	2.66719	3.99700	7.53817	8.89270	8.68142	10.54999	9.60344	8.39909	6.38748	11.35111	10.97983	5.32597	5.32670	6.12024	3.76432	18.61186	6.68881	8.49297
42900	5.65412	3.06530	3.60292	14.49295	16.01104	14.61038	7.75755	4.95291	6.65336	6.77118	7.47189	16.06033	6.24234	6.75930	5.98360	9.22170	16.56425	14.94365
43060	2.37127	2.86723	3.26433	23.05012	22.95535	12.97717	13.21085	9.08349	10.23548	16.87130	29.97304	26.26759	8.15573	7.44325	9.30752	32.42319	32.95060	20.13169
43230	8.04261	8.70873	11.14382	11.01702	39.62720	15.32153	9.96925	10.83671	7.37081	28.26650	16.19988	10.04957	5.42749	6.45633	4.42456	23.40707	11.28358	20.74774
43390	5.75090	8.10457	4.78580	18.30528	30.87055	17.11663	11.35863	12.26255	8.27504	32.05626	24.86148	22.10000	6.35508	7.10704	6.31022	22.60422	12.30105	12.25505
43560	4.61046	5.48504	5.11779	6.61018	6.95159	6.07564	11.34285	4.89123	2.49262	8.98405	11.13647	11.66722	4.24932	7.09416	6.23361	15.84341	11.84627	11.63329
43720	4.33669	4.76027	3.40020	14.91519	17.89962	15.60464	8.77145	9.50613	6.03659	16.37362	20.67873	22.00704	4.09598	3.62586	5.36163	29.56265	31.95220	49.26034
43880	6.60261	6.16281	3.84378	24.20958	15.54380	31.14676	11.98727	9.87321	4.61175	24.75554	44.22968	29.86661	8.18287	8.48599	5.28073	27.26996	29.11796	11.61539
44050	5.61631	7.56709	3.94879	12.77677	25.53623	26.64215	11.31910	8.11495	4.96833	15.27915	6.77753	13.14489	10.54115	7.78353	6.55444	9.95824	7.76702	11.69174
44210	4.65046	4.11613	2.45335	17.08080	12.00953	11.18964	7.98098	9.14899	4.72815	18.62365	14.44912	20.46321	8.32001	5.90977	4.75907	36.42532	33.54945	16.91774	26.58	6.1	0.00	7.34	0.01271	0.01289	0.01661	0.00767	0.00571	0.00627	0.00467	0.01264	0.01683	0.00667	0.00679	0.00877	0.01488	0.01094	0.01195	0.00214	0.00608	0.00855
44380	5.76474	7.50082	10.09625	16.94822	28.80446	22.29402	15.70519	9.32176	10.00019	18.88611	13.76227	8.02778	6.75962	3.91811	4.73774	21.89311	16.09716	12.77911
44540	5.20199	5.63141	5.77315	18.83468	18.37778	23.00374	11.85971	12.00579	6.21505	15.69341	15.97496	10.33769	6.81048	8.37278	7.70669	21.30189	21.63412	17.95869
44700	6.44130	5.78296	8.83434	19.86853	29.27925	25.28312	9.42431	7.42097	6.42939	21.36993	16.60639	16.08391	5.22214	4.14321	3.01810	31.34815	18.54648	10.29178
44870	2.71339	1.78004	2.29216	32.78223	24.34686	26.35004	7.52015	8.80663	5.21138	33.20419	15.11517	14.92533	6.61721	3.47049	6.92079	24.23974	38.66464	40.95102
45030	7.04840	7.44745	5.01813	31.60943	24.35553	21.21677	8.46515	7.13015	4.96850	26.75829	10.96414	18.64350	4.12472	5.42836	5.87989	26.02401	11.98639	23.68905
45200	5.30944	5.29708	6.69427	18.15601	17.60375	9.94870	7.09278	5.10655	3.67084	9.15715	11.19522	11.90530	2.63234	2.86270	3.78680	22.88253	35.26246	23.09412
45360	3.68884	5.53380	2.56468	14.77525	34.18335	17.74548	10.80343	10.67312	9.80906	10.48985	9.65305	23.61568	4.97042	4.66740	3.88194	25.75947	21.36852	29.11740
45520	3.69902	5.22496	5.09069	13.45144	18.45259	13.78266	10.16978	8.56353	7.70463	25.90691	9.98044	17.85277	6.67318	9.74668	9.03152	39.00915	22.54999	18.87453
45690	4.47071	5.77883	6.56634	14.92026	12.66183	11.91336	11.61761	11.25056	8.09011	27.51635	12.34927	20.39962	7.11059	7.01920	4.82793	16.04566	29.11713	32.64049
45850	5.99835	3.75161	7.14060	35.18699	6.80851	9.84018	7.98249	7.87527	9.32964	18.31399	21.88198	21.61753	7.80677	4.88363	4.52240	21.01692	13.41856	15.39041	26.58	6.2	0.00	7.34	0.01271	0.01289	0.01661	0.00767	0.00571	0.00627	0.00467	0.01264	0.01683	0.00666	0.00678	0.00877	0.01488	0.01095	0.01195	0.00214	0.00608	0.00855
46020	9.67668	5.85692	6.66015	12.55155	11.27328	15.20272	9.87802	8.35581	5.88132	17.23728	13.61979	15.14814	5.61053	3.92652	5.76327	26.10779	12.49419	12.59265
46180	4.92343	3.70323	5.24293	22.33043	15.71119	22.16787	8.91353	8.07251	6.98281	17.66730	19.57344	18.96040	8.89807	8.73557	9.65543	9.12821	13.95213	19.72418
46340	6.82759	6.80277	5.06027	23.08896	15.51634	12.55620	10.14443	10.29899	6.70857	29.30783	24.23761	27.02051	10.01963	8.08019	5.68777	15.22124	13.11361	13.60996
