WetView ver 7.1	07-17-2018	14:30:36
AC9 Absorption and Attenuation Meter
00000266		; Serial number
2	; structure version number
Reserved
0.000000	0.000000		; Depth calibration
19200			; Baud rate
0.100000			; Path length (meters)
31			; number of temperature calibration bins
				12.59339	13.44920	14.48425	15.49668	16.50852	17.49564	18.50545	19.52458	20.50176	21.48889	22.47318	23.48707	24.50962	25.49370	26.49784	27.51372	28.50746	29.47237	30.47938	31.50214	32.50470	33.49235	34.50337	35.50914	36.50618	37.52058	38.51018	39.51308	40.49994	41.49866	42.47204	; temperature bins
a650	Blue	20.34952		-0.00383	-0.00415	-0.00430	-0.00391	-0.00363	-0.00317	-0.00269	-0.00237	-0.00179	-0.00130	-0.00099	-0.00071	-0.00015	0.00000	0.00004	-0.00001	0.00015	0.00036	0.00058	0.00101	0.00161	0.00132	0.00160	0.00169	0.00242	0.00273	0.00336	0.00365	0.00427	0.00566	0.00670		; offset and temperature correction info
a676	Green	20.51193		-0.00398	-0.00384	-0.00360	-0.00306	-0.00302	-0.00255	-0.00235	-0.00212	-0.00163	-0.00136	-0.00118	-0.00089	-0.00029	0.00000	0.00068	0.00082	0.00099	0.00137	0.00145	0.00212	0.00260	0.00252	0.00321	0.00354	0.00457	0.00535	0.00617	0.00648	0.00742	0.00887	0.01002		; offset and temperature correction info
a715	Brown	20.23230		-0.00421	-0.00394	-0.00391	-0.00291	-0.00264	-0.00192	-0.00204	-0.00179	-0.00188	-0.00239	-0.00180	-0.00187	-0.00099	0.00000	0.00084	0.00162	0.00188	0.00224	0.00321	0.00381	0.00466	0.00528	0.00588	0.00696	0.00859	0.01041	0.01148	0.01282	0.01333	0.01456	0.01617		; offset and temperature correction info
c510	Red	20.40042		-0.00261	-0.00247	-0.00258	-0.00225	-0.00203	-0.00197	-0.00199	-0.00203	-0.00154	-0.00103	-0.00069	-0.00019	-0.00007	0.00000	0.00011	-0.00021	-0.00042	-0.00056	-0.00040	0.00011	0.00036	0.00050	0.00077	0.00079	0.00050	0.00042	0.00043	0.00092	0.00147	0.00200	0.00232		; offset and temperature correction info
c532	Magenta	20.40760		-0.00248	-0.00265	-0.00278	-0.00279	-0.00296	-0.00292	-0.00238	-0.00206	-0.00129	-0.00096	-0.00092	-0.00052	-0.00009	0.00000	0.00007	-0.00049	-0.00136	-0.00107	-0.00079	-0.00065	-0.00074	-0.00105	-0.00152	-0.00192	-0.00236	-0.00269	-0.00252	-0.00233	-0.00172	-0.00128	-0.00067		; offset and temperature correction info
c555	Black	20.50654		-0.00053	-0.00063	-0.00106	-0.00094	-0.00068	-0.00055	-0.00053	-0.00039	-0.00028	-0.00025	-0.00011	-0.00035	-0.00007	0.00000	-0.00037	-0.00055	-0.00036	-0.00014	0.00019	0.00044	0.00032	0.00040	0.00050	0.00028	0.00014	0.00013	0.00030	0.00073	0.00117	0.00176	0.00241		; offset and temperature correction info
a412	LtBlue	17.15231		-0.01972	-0.01823	-0.01612	-0.01381	-0.01272	-0.01080	-0.00959	-0.00866	-0.00710	-0.00532	-0.00354	-0.00148	-0.00028	0.00000	0.00176	0.00297	0.00394	0.00440	0.00453	0.00487	0.00804	0.00856	0.01065	0.01248	0.01388	0.01439	0.01659	0.01881	0.02256	0.02450	0.02719		; offset and temperature correction info
a440	LtGreen	18.00171		-0.00729	-0.00642	-0.00581	-0.00502	-0.00426	-0.00349	-0.00244	-0.00218	-0.00179	-0.00101	-0.00046	-0.00006	0.00036	0.00000	0.00040	0.00045	0.00030	-0.00015	-0.00024	-0.00035	0.00012	-0.00013	-0.00033	-0.00089	-0.00142	-0.00189	-0.00231	-0.00205	-0.00140	-0.00140	-0.00146		; offset and temperature correction info
a488	Yellow	18.86491		-0.00113	-0.00102	-0.00106	-0.00064	-0.00027	-0.00020	-0.00030	-0.00037	-0.00047	-0.00059	-0.00052	-0.00012	0.00008	0.00000	0.00025	0.00012	-0.00013	-0.00043	-0.00065	-0.00076	-0.00025	0.00010	0.00090	0.00111	0.00113	0.00104	0.00073	0.00068	0.00120	0.00186	0.00258		; offset and temperature correction info
c650	Blue	20.46075		-0.00145	-0.00097	-0.00092	-0.00139	-0.00185	-0.00196	-0.00237	-0.00266	-0.00238	-0.00163	-0.00083	-0.00041	-0.00010	0.00000	0.00005	-0.00001	0.00015	0.00034	0.00029	0.00065	0.00101	0.00164	0.00126	0.00156	0.00175	0.00270	0.00287	0.00371	0.00407	0.00473	0.00534		; offset and temperature correction info
c676	Green	20.10118		-0.00170	-0.00144	-0.00149	-0.00177	-0.00188	-0.00194	-0.00198	-0.00196	-0.00177	-0.00156	-0.00140	-0.00091	-0.00033	0.00000	0.00050	0.00092	0.00110	0.00141	0.00167	0.00199	0.00216	0.00265	0.00269	0.00289	0.00315	0.00374	0.00367	0.00408	0.00486	0.00561	0.00646		; offset and temperature correction info
c715	Brown	19.91219		-0.01201	-0.01097	-0.00859	-0.00680	-0.00651	-0.00592	-0.00535	-0.00440	-0.00387	-0.00303	-0.00222	-0.00153	-0.00028	0.00000	0.00093	0.00149	0.00247	0.00322	0.00330	0.00427	0.00373	0.00464	0.00536	0.00551	0.00643	0.00733	0.00779	0.00884	0.00899	0.01021	0.01120		; offset and temperature correction info
a510	Red	19.21192		0.00201	0.00193	0.00158	0.00098	0.00089	0.00049	0.00011	-0.00016	-0.00016	-0.00005	0.00028	0.00025	0.00006	0.00000	0.00035	-0.00022	-0.00023	-0.00080	-0.00144	-0.00154	-0.00153	-0.00204	-0.00220	-0.00219	-0.00190	-0.00128	-0.00069	-0.00018	0.00068	0.00152	0.00241		; offset and temperature correction info
a532	Magenta	19.41084		-0.00097	-0.00072	-0.00060	-0.00081	-0.00062	-0.00071	-0.00040	0.00020	0.00028	0.00043	0.00000	-0.00035	0.00007	0.00000	-0.00011	-0.00059	-0.00080	-0.00098	-0.00137	-0.00162	-0.00163	-0.00130	-0.00073	-0.00018	0.00090	0.00185	0.00175	0.00247	0.00291	0.00327	0.00349		; offset and temperature correction info
a555	Black	19.69776		0.00171	0.00183	0.00183	0.00186	0.00191	0.00170	0.00115	0.00131	0.00097	0.00073	0.00060	0.00013	0.00015	0.00000	0.00014	-0.00029	-0.00066	-0.00082	-0.00116	-0.00139	-0.00134	-0.00167	-0.00119	-0.00093	-0.00048	0.00053	0.00111	0.00095	0.00178	0.00206	0.00273		; offset and temperature correction info
c412	LtBlue	19.91180		-0.02051	-0.01853	-0.01589	-0.01311	-0.01059	-0.00877	-0.00705	-0.00581	-0.00413	-0.00231	-0.00098	-0.00066	-0.00011	0.00000	-0.00013	-0.00085	-0.00170	-0.00170	-0.00302	-0.00330	-0.00429	-0.00551	-0.00626	-0.00775	-0.00978	-0.01181	-0.01113	-0.01108	-0.01116	-0.01192	-0.01291		; offset and temperature correction info
c440	LtGreen	20.06241		-0.01064	-0.00992	-0.00892	-0.00766	-0.00639	-0.00531	-0.00478	-0.00384	-0.00287	-0.00187	-0.00102	-0.00063	-0.00023	0.00000	-0.00007	-0.00053	-0.00090	-0.00119	-0.00169	-0.00197	-0.00226	-0.00257	-0.00260	-0.00289	-0.00394	-0.00470	-0.00481	-0.00493	-0.00520	-0.00580	-0.00620		; offset and temperature correction info
c488	Yellow	20.35984		-0.01125	-0.01082	-0.00966	-0.00833	-0.00726	-0.00661	-0.00579	-0.00500	-0.00389	-0.00278	-0.00167	-0.00113	-0.00041	0.00000	0.00055	0.00121	0.00187	0.00226	0.00222	0.00251	0.00281	0.00359	0.00414	0.00427	0.00401	0.00404	0.00486	0.00563	0.00638	0.00684	0.00718		; offset and temperature correction info
0.003500	0.004000	0.015000	0.020000	0.015000	0.020000	2500.000000	2000.000000	1000.000000	; maxANoise	maxCNoise	maxADifference	maxCDifference	minACounts	minCCounts	minRCounts	maxTempSdev	maxDepthSdev
0			; auxilliary capabilities
1			; acquisition binsize
0	12.32314	13.36140	15.58689	52.50146	45.88193	42.67089	17.45898	16.01886	14.22078	47.62996	47.94489	29.90692	15.67894	15.88108	8.99721	33.70320	49.40784	53.84676	21.67	6.0	0.00	6.78	0.01282	0.01294	0.01701	0.00781	0.00582	0.00638	0.00471	0.01272	0.01698	0.00679	0.00688	0.00906	0.01498	0.01104	0.01204	0.00219	0.00619	0.00872
160	15.51064	14.05527	11.83132	46.79059	36.09852	24.51306	15.96256	18.25596	13.27001	47.74623	28.08131	32.30586	12.49015	13.51216	13.37058	22.30843	16.05724	17.40286
330	6.94469	6.69169	4.39139	12.51111	19.10150	29.68469	12.26123	7.61592	10.13643	27.37554	20.84236	17.37575	8.56983	4.87021	6.14035	22.42970	27.97293	28.23582
490	12.88394	11.21917	9.19388	26.70480	16.61907	30.00165	11.68844	9.95341	9.08747	30.98121	46.63783	25.83138	11.15227	12.62325	10.35236	18.00767	11.09551	10.14800
650	7.34120	9.03038	8.34795	10.93565	7.21277	3.38387	11.47051	10.92496	6.18327	5.13660	6.01406	12.61175	8.22019	6.72940	8.11708	6.16988	9.13280	2.30468
820	8.05070	6.61487	6.10023	12.53608	21.77290	15.26564	10.67706	7.64468	7.37268	4.71962	7.43059	16.95011	4.30672	4.54330	6.97768	8.59106	11.62513	11.40316
980	3.42862	6.16701	4.25882	7.66638	14.52602	7.09000	10.46970	7.96680	4.96298	12.69218	16.99948	21.85960	7.92559	10.17722	9.12225	20.62385	18.22082	17.89238
1150	9.46092	7.92059	12.30169	20.08043	22.49978	17.40619	17.85694	11.00080	14.56503	8.27701	6.90004	12.91764	5.88803	6.12038	9.32593	10.43259	13.59264	15.68964
1310	5.80298	5.96015	6.23873	14.71470	13.46286	21.64189	11.45146	9.79286	6.64946	14.80955	12.53784	15.64850	6.89101	9.82854	10.63931	7.32764	7.61275	8.19674
1480	10.24403	9.09279	7.30871	7.63522	7.30941	6.24390	10.39058	6.32551	7.06271	4.89596	8.92082	11.46780	8.01386	6.78174	8.73482	9.52153	14.33855	17.10773
1640	7.07730	6.98590	6.92124	7.76660	22.38768	13.49873	11.03702	10.60818	7.07788	11.29121	11.99297	15.05692	9.00371	6.31628	6.69758	33.86496	23.67862	24.03111	21.67	6.1	0.00	7.21	0.01282	0.01294	0.01701	0.00781	0.00582	0.00637	0.00471	0.01272	0.01698	0.00679	0.00688	0.00905	0.01498	0.01104	0.01204	0.00219	0.00619	0.00871
1810	7.39587	6.80450	5.71029	34.36136	30.14536	20.03288	12.46281	12.64699	13.41034	18.38856	16.90594	15.58450	11.20278	14.99283	12.15955	19.29996	31.20208	16.84694
1970	10.38125	6.97109	4.76086	28.96747	29.09750	30.69032	14.07171	11.95845	11.82510	17.53506	25.55694	19.02753	9.89567	8.71786	5.07781	13.41190	13.61912	11.92235
2140	3.62049	5.14905	4.83875	13.08645	9.94631	4.91714	10.58846	9.85048	7.62987	11.49389	5.29647	10.17360	7.25338	8.50083	11.18370	20.23514	8.98987	12.94162
2300	10.09672	8.22226	7.84642	16.22537	10.21923	12.40248	9.61434	9.84087	10.87390	9.57501	7.37306	12.40048	11.78828	10.12106	12.94149	20.24415	9.70551	6.26190
2470	9.32521	10.37167	7.81304	7.59045	11.73804	17.19124	12.30171	14.26634	12.48716	14.22363	16.09787	18.65062	9.39475	10.08584	11.13907	19.74764	15.21823	19.32067
2630	6.32473	8.29027	7.37544	33.12730	35.65409	23.17987	10.69374	8.68493	11.64121	31.72317	18.53838	35.66497	8.48815	13.64041	15.95866	70.33586	50.07542	50.96061
2800	15.39450	12.31865	12.68752	21.69803	40.11249	24.35761	17.32217	15.67935	18.34447	32.68928	25.25010	22.42809	13.58737	18.93006	15.72609	33.06419	26.51723	27.92528
2960	13.97867	10.38912	11.42516	11.94059	23.69832	20.04957	12.22645	11.95231	13.32637	24.78317	27.96059	17.44583	12.42069	11.50627	11.11006	19.54596	20.87925	21.76325
3130	7.74580	10.50296	12.44119	28.74593	22.57204	17.03012	12.75821	14.00898	11.36583	20.55268	16.66353	14.90732	10.90630	8.86782	7.79498	9.97207	23.46802	20.47525
3290	6.10973	8.76390	8.78908	24.44314	28.29021	43.74079	15.39764	15.12339	15.62510	30.83131	52.70526	38.74809	14.54522	15.67119	12.16424	26.61732	18.54802	31.64306	21.80	5.9	0.00	7.17	0.01282	0.01294	0.01701	0.00781	0.00582	0.00637	0.00471	0.01272	0.01698	0.00678	0.00688	0.00905	0.01498	0.01104	0.01204	0.00219	0.00619	0.00871
3460	8.59218	7.92348	8.83664	18.14405	11.89810	11.05195	9.13696	6.13082	8.84612	14.60470	25.28070	20.07810	10.70565	8.61128	7.00399	14.36389	38.45650	22.75402
3620	9.61946	9.65232	7.97378	17.78747	14.75832	11.28098	15.60613	7.91931	5.86247	12.76651	11.25851	14.09797	3.45902	4.11918	7.65830	14.51694	8.58486	13.65126
3780	7.45624	6.67996	5.67971	5.41736	11.15474	6.17167	11.15394	7.56937	9.27664	6.26143	2.99973	8.85460	5.82361	9.63326	9.56834	9.20158	21.43207	9.68388
3950	10.85302	9.75664	7.41821	27.68020	26.22729	23.17236	13.25212	11.15971	10.24692	22.58755	25.75188	23.78820	9.88298	10.59637	10.10873	21.15528	15.86594	10.03499
4110	7.77674	7.14106	9.66247	22.72320	32.28621	33.23755	13.76334	11.48376	12.16768	28.46574	22.35176	24.55981	9.86315	11.05737	8.25892	40.49253	22.82187	26.40943
4280	6.11283	7.25185	9.67275	14.27856	27.66128	21.26473	12.81885	11.13521	12.14982	9.51521	13.18570	10.08736	7.84835	9.47382	9.37043	20.22477	21.26617	15.17846
4440	5.58642	6.52585	6.89802	7.98102	15.51990	23.98598	11.89652	10.37361	10.87071	8.74421	14.33524	10.43946	8.92383	8.41357	7.86498	6.06774	7.76290	9.23667
4610	10.60878	8.97548	9.17331	6.40436	14.64683	13.28783	11.75594	8.65960	9.84774	23.19080	6.66838	5.77563	9.70211	9.30261	5.34269	12.72948	15.99563	11.19570
4770	9.66136	10.77529	10.97167	21.75404	14.58407	10.70895	13.25700	16.06170	13.00911	33.00999	37.66248	50.13562	13.76043	12.25451	15.89397	32.39534	39.19637	52.76974
4930	13.85738	14.10882	15.11160	48.28880	43.37911	23.81315	15.38726	16.92145	13.76140	38.85529	21.22039	29.68831	13.18555	12.20903	15.05267	48.34534	35.91917	22.61940	21.80	6.1	0.00	7.18	0.01282	0.01294	0.01701	0.00781	0.00582	0.00637	0.00471	0.01272	0.01698	0.00679	0.00687	0.00906	0.01498	0.01103	0.01204	0.00218	0.00619	0.00871
5100	12.01580	10.98016	9.32786	21.41732	17.32304	27.86279	15.24043	19.08538	12.29542	18.47670	25.40380	45.38129	16.44162	13.51102	17.83049	25.03232	31.60250	56.56217
5260	13.02018	11.44539	12.08657	24.07823	26.48606	40.51610	14.22623	13.96878	10.23517	32.80153	26.26094	34.48206	11.82438	10.69840	11.87562	50.58850	29.32087	32.34890
5420	9.52786	9.57857	9.68891	10.30140	14.17060	16.68717	11.40408	7.23572	9.18078	12.47124	14.00461	11.77561	11.17232	11.26856	5.21686	9.84227	8.50782	9.30976
5590	8.95916	9.72044	11.89209	12.92491	18.37958	15.28419	14.53582	10.76627	9.66585	9.96811	19.56791	27.68666	15.61626	10.30183	9.21473	30.98392	17.84445	16.64809
5750	7.25345	11.19080	13.14698	23.02427	28.46391	22.21528	13.38953	7.30811	6.22638	17.57048	17.21807	11.15001	13.25136	13.53344	9.84931	30.27667	18.89642	24.09234
5920	8.77583	8.01533	7.66533	9.61473	7.64685	4.33479	7.34155	8.93284	9.72393	9.27461	6.49335	7.68764	9.27693	9.34496	7.04397	11.01067	9.04520	3.96891
6080	7.44754	7.49108	6.54893	7.25683	5.17720	4.36183	10.97849	9.75959	7.61755	4.78184	5.06199	3.66735	9.34886	6.88326	6.38288	6.81104	3.34654	3.64519
6250	9.27952	8.49247	7.60611	4.87948	7.13347	4.64214	8.74543	10.56707	9.68674	7.48631	7.58579	5.83963	12.53751	14.01919	11.21882	41.70375	11.57870	10.79569
6410	14.70808	11.12957	12.23184	27.74235	20.58837	27.25869	15.17524	15.70142	13.49767	32.84082	26.99539	30.00634	10.94896	14.42116	17.09285	16.37727	11.81238	18.92673
6570	12.94334	12.75405	12.71535	15.87354	24.28548	22.28534	15.03985	11.20112	13.47620	8.76460	8.70836	12.06561	7.06250	7.59358	7.87552	10.34612	7.21934	7.54869	21.73	6.1	0.00	7.20	0.01282	0.01294	0.01701	0.00780	0.00582	0.00637	0.00471	0.01272	0.01698	0.00679	0.00688	0.00905	0.01498	0.01103	0.01204	0.00218	0.00619	0.00871
6740	8.66534	9.30499	11.15493	7.12750	4.02671	6.17504	11.74374	10.41118	6.62226	4.37981	3.65116	4.27794	3.01707	5.91237	7.52458	12.98108	16.12031	12.78318
6900	8.51780	10.27485	7.91786	10.37355	21.65998	20.60089	12.86195	14.62063	11.58565	47.88447	13.11377	28.84040	11.92003	11.32055	10.31987	27.85050	30.04520	28.51497
7070	13.29376	9.17386	8.50732	19.13187	30.27195	32.71040	12.19133	11.35152	10.64907	27.19112	14.51543	19.26799	7.26827	6.88589	5.02607	21.09803	15.02920	15.59274
7230	11.11527	9.83214	8.07602	17.64657	14.93589	18.42944	13.68445	15.83858	12.84251	20.54590	16.09089	15.89693	12.24159	12.07511	11.76671	27.16999	22.07281	16.77751
7400	6.93635	9.31453	10.92921	15.81896	15.16275	19.49975	13.37824	13.55704	13.91497	16.54994	13.77302	16.24425	8.20920	10.38860	7.29476	26.03050	17.30689	16.46757
7560	7.12501	9.81540	7.02303	12.59565	10.19810	10.58267	13.80736	13.76521	9.55740	14.92439	12.54381	11.95287	9.70928	10.78565	13.06205	14.76120	20.71711	19.03680
7720	10.24867	9.16398	9.15969	11.35855	18.79919	14.58052	8.67982	7.14845	4.92740	8.96307	5.64407	8.41269	8.75195	9.39599	8.69455	6.64670	4.95355	2.83071
7890	8.39800	6.72669	6.06927	3.78500	5.19734	4.14088	9.48158	11.35930	12.24301	11.01885	9.36732	14.17105	13.98874	11.39569	13.12628	8.90358	11.66086	17.56204
8050	11.96902	11.63191	12.47559	11.97870	18.82295	21.62737	9.40114	13.35302	10.22294	24.28448	25.87911	37.59165	16.60054	16.09103	15.86256	45.51428	35.40929	49.13784
8220	11.61534	14.20803	12.71222	48.75858	30.81991	36.32911	17.09172	16.07415	12.50202	40.46950	35.00120	51.14786	13.83874	11.55279	14.43071	23.15398	34.72397	21.45806	21.73	6.1	0.00	7.25	0.01282	0.01294	0.01700	0.00780	0.00582	0.00637	0.00471	0.01272	0.01698	0.00678	0.00687	0.00905	0.01498	0.01103	0.01204	0.00219	0.00619	0.00871
8380	11.63864	7.02863	8.24709	27.35662	28.36687	32.44239	11.83590	10.31175	10.20041	21.08015	31.60137	18.06916	10.14080	11.72529	11.24256	17.51310	21.42735	31.22661
8550	12.41889	14.83052	11.55297	35.12738	32.42027	21.80116	14.50571	9.03155	10.24713	12.21528	16.29091	19.10405	12.58930	10.82817	8.62297	9.31331	9.93296	20.05473
8710	5.03582	8.10373	6.32225	35.53382	25.46210	28.91663	7.07353	8.05474	6.64817	35.53384	25.55543	26.58995	8.89957	6.01064	8.59360	39.02866	70.13044	50.22583
8880	8.35337	11.25755	8.92298	18.15307	18.77018	24.44871	14.14051	8.49127	8.96142	18.04847	22.00208	23.52308	9.81285	11.00076	11.32362	14.12563	14.68682	24.94996
9040	11.21194	9.41415	7.20820	16.50573	17.30675	19.69087	14.79951	12.84606	10.79789	20.63400	15.31977	14.78582	10.41468	6.55539	6.25029	8.56185	9.93383	6.93296
9210	3.82830	6.69445	7.38569	7.08204	9.16094	5.26706	13.08639	11.61984	5.75468	10.82575	20.38027	17.17540	10.78984	7.70456	8.28945	26.00268	17.15101	17.19503
9370	8.85932	9.13364	12.78125	15.77936	17.28589	23.77746	15.71787	14.34432	11.83480	22.84470	19.13019	17.58334	11.60050	7.63442	8.86371	36.83307	19.02435	13.44751
9540	7.30900	5.50865	8.52669	5.63412	9.23566	6.56471	11.88367	8.16136	9.07688	5.27625	6.36934	5.87449	5.39749	4.42048	4.01226	6.14002	3.07236	5.01147
9700	6.12226	8.07824	9.65643	8.75133	8.48884	10.37382	12.26399	8.74833	8.95898	10.17985	10.43767	6.81257	8.24054	10.85644	7.56073	8.46624	2.82053	10.75773
9870	5.44938	5.95283	6.62333	8.45177	5.48519	6.60771	7.23648	5.22622	6.61922	8.07319	8.72683	14.87723	8.04770	9.03018	10.20697	19.20226	8.89449	9.54349	21.67	6.1	0.00	7.21	0.01282	0.01294	0.01700	0.00780	0.00582	0.00637	0.00471	0.01272	0.01698	0.00678	0.00687	0.00905	0.01498	0.01104	0.01204	0.00219	0.00619	0.00871
10030	5.03202	4.59081	6.92330	7.54112	7.58667	10.89434	12.92117	9.81449	6.86549	12.40098	10.05576	8.39729	9.84618	7.08716	11.98733	11.59792	9.24410	7.67846
10190	7.61983	10.49815	9.48956	14.34775	23.85659	19.64315	11.54732	13.55198	10.63368	26.04125	34.50732	34.32341	13.32148	14.14303	13.65790	34.13883	32.82019	38.53011
10360	14.38562	14.40644	11.83154	33.80693	32.58961	42.55647	16.46425	11.24273	13.79530	36.95093	35.50725	47.39003	13.88897	15.30806	16.92627	39.09706	35.17909	44.06312
10520	14.75843	15.22994	16.89846	29.51309	43.23990	40.53836	18.24121	17.50899	13.76454	51.73458	53.96349	24.59313	13.01514	15.21041	14.27191	46.46108	61.74186	54.53356
10690	13.87582	15.48890	10.48001	29.26299	19.12107	29.13049	16.11530	13.63043	12.31486	20.94089	20.85995	26.57599	14.22347	10.17525	14.91320	23.58760	20.39218	39.49626
10850	14.47510	12.55349	12.92503	37.30926	34.40631	20.00576	11.58198	12.77977	13.74663	11.58297	10.69152	11.48029	13.73315	13.37080	11.84162	28.05416	15.94857	17.06483
11010	7.54752	8.28433	10.00027	35.56939	38.00682	23.30344	12.76961	11.83403	11.82503	21.93440	13.57297	13.06545	10.98140	7.53472	6.99678	15.12419	11.81564	10.24219
11180	10.37021	11.07644	4.65903	5.38879	8.78331	11.75102	5.82655	6.50171	5.67152	4.05818	11.12584	8.40512	9.97891	8.88144	6.97630	12.37711	14.63071	12.04504
11340	6.27885	5.50265	4.02686	11.30456	9.85429	15.22168	9.09900	5.49380	5.70805	12.95853	9.74876	12.33279	6.18993	7.43296	8.69275	5.51847	3.47793	4.99635
11510	5.99400	7.08736	5.92113	6.77182	5.20175	8.26802	9.33462	10.61719	11.11026	6.72412	6.99949	6.55238	10.92351	8.83100	8.19425	8.55457	6.02724	5.83737	21.67	6.1	0.00	7.19	0.01282	0.01294	0.01700	0.00781	0.00582	0.00637	0.00471	0.01272	0.01698	0.00678	0.00688	0.00905	0.01498	0.01103	0.01204	0.00218	0.00619	0.00871
11670	5.59777	6.20108	5.98417	2.19912	2.52563	4.16354	9.07401	9.22059	5.21255	4.24431	3.90840	4.21214	5.34518	5.82542	6.96786	6.99107	8.05580	9.33558
11840	5.17039	5.13514	5.77065	8.29998	8.79264	15.08495	10.19538	13.58235	10.98384	7.34473	8.26347	13.33947	11.84024	13.66226	11.79468	10.59300	8.59862	4.41901
12000	11.91030	11.49196	8.39534	10.84549	17.38578	9.67127	5.99305	9.52312	8.99024	22.45868	22.54738	14.70957	12.20970	12.90967	13.76020	30.58816	20.33530	24.79723
12170	7.60988	11.32386	9.24970	29.48118	20.64293	35.34357	13.03475	14.02399	8.43705	48.45077	50.22489	45.27131	13.16433	16.39028	15.34824	23.20303	12.73299	19.17542
12330	16.30290	15.51791	11.11879	16.13080	21.06441	26.85441	15.92661	14.61756	10.60705	31.12635	37.70003	34.53799	10.86744	10.97690	15.16774	23.51059	28.59199	29.14238
12490	12.20898	12.20399	15.95158	34.10751	26.87676	20.49088	15.92336	14.20669	10.95474	40.02948	36.62313	31.18948	12.64650	12.45207	13.91140	21.40575	11.73349	5.38738
12660	7.74795	10.23010	7.27080	8.46875	12.46417	13.70570	8.61366	9.93135	7.87521	13.23419	6.23962	7.39897	8.18445	8.28701	6.53738	20.28885	11.13256	8.83071
12830	9.98198	9.96015	7.44986	13.62874	20.01222	18.03311	11.77373	12.18974	7.62783	20.54491	28.34552	33.98067	9.59992	12.95302	14.19845	38.06162	37.26396	34.32443
12990	15.80916	11.76182	13.14454	46.01818	29.36752	58.77888	23.69234	12.21183	12.61917	31.89271	32.57617	23.61210	14.45365	17.29902	16.97458	29.31951	49.04742	20.99296
13160	14.56620	15.49104	14.08241	30.73729	27.61175	18.87562	15.70196	13.37046	10.65066	20.76786	26.92131	16.15213	10.02716	8.96629	13.75116	8.42614	8.09758	18.03373	21.80	6.3	0.00	7.21	0.01282	0.01294	0.01700	0.00780	0.00582	0.00637	0.00471	0.01272	0.01698	0.00678	0.00687	0.00905	0.01498	0.01103	0.01204	0.00218	0.00619	0.00871
13320	14.19383	15.88115	13.18958	18.80419	10.70269	30.68828	14.03046	12.17560	14.93784	25.93913	27.26092	28.65662	8.99301	13.00219	14.78173	23.45222	18.05676	25.70687
13480	13.85273	9.09571	4.40002	29.24786	22.45245	24.47101	9.20793	4.74847	6.76211	21.63792	21.49603	13.72986	6.96370	8.37191	5.36610	15.68188	15.35384	18.03026
13650	6.07754	6.17822	4.65071	10.44717	26.87432	9.24262	11.20200	9.17138	11.79755	25.45614	16.07497	13.92507	10.60962	12.78172	12.16217	29.25766	30.23225	26.40958
13810	9.32908	8.97703	7.99235	50.69479	52.81580	35.05517	19.22153	12.91263	14.20673	40.48041	29.55740	24.34416	12.26632	11.15865	12.49881	18.55001	24.21508	46.44944
13970	17.08875	17.06084	16.02157	26.04897	26.87040	18.87093	19.37267	14.85143	15.93166	41.45293	26.64714	21.15016	13.85528	11.85793	10.00563	45.88345	30.48495	26.19782
14140	11.89773	10.79019	11.38390	31.49499	20.01184	27.49461	13.66857	10.73784	9.26480	19.52501	16.84870	12.67084	7.07908	6.93533	6.85194	27.96830	27.50150	22.88351
14300	8.85072	5.81570	9.71202	16.35742	21.22615	15.96738	7.28322	12.15187	9.29783	16.10442	19.77452	16.98283	8.12558	9.09471	8.60794	26.86894	15.25580	14.89020
14460	8.05763	8.36394	10.35975	13.59351	29.00512	24.61374	11.45957	13.49486	11.67385	18.90007	26.63746	9.57238	10.59423	14.15605	10.03357	29.69283	31.75934	28.07474
14630	9.78182	8.79707	10.36339	34.53553	34.66570	38.54662	16.11554	15.39471	15.08084	31.59946	23.91950	39.11602	14.71261	13.16038	12.77194	40.93247	39.23363	44.80883
14790	9.12960	14.04744	11.09859	35.95913	81.62712	67.43203	13.24388	11.05691	14.18687	71.58007	44.53128	34.20232	14.23616	10.23232	11.95079	54.83952	34.82155	54.31533	21.80	6.1	0.00	7.18	0.01282	0.01293	0.01700	0.00780	0.00581	0.00637	0.00471	0.01272	0.01698	0.00678	0.00686	0.00905	0.01497	0.01103	0.01204	0.00218	0.00619	0.00871
14960	9.29691	10.52039	11.00374	28.18215	36.64773	33.81346	13.11175	13.55692	12.13455	28.73545	14.51351	16.08987	14.53775	8.81801	11.84121	49.55862	33.22785	36.86025
15120	11.74667	9.20174	4.85579	17.59596	18.11468	36.22427	14.03250	13.20192	12.35566	43.64382	35.63730	42.77017	12.01384	13.89636	13.31172	34.72646	65.10663	49.72463
15290	12.46225	11.24396	13.37128	52.41145	43.04445	39.40121	12.90717	17.02387	14.53857	44.38635	32.26448	24.60781	14.18766	14.08203	13.81172	31.75549	14.83224	20.91483
15450	12.41064	7.81942	8.37550	24.59984	23.52593	15.33493	12.91810	9.38943	9.06658	24.56386	21.43575	22.84566	9.86893	9.89739	11.13565	17.25114	11.10209	15.76388
15620	8.56423	9.95482	10.18804	11.06214	17.70177	21.75434	11.27807	8.87834	7.90521	10.15436	10.32256	11.97075	14.32696	10.38370	13.15933	32.92730	32.74584	26.82329
15780	10.63485	13.89168	16.12966	34.07400	56.09696	58.41108	18.98077	17.77935	16.93058	55.99479	47.83327	85.69681	14.50953	13.96773	14.63914	58.41654	41.08658	39.14449
15950	15.72056	14.21363	15.57572	51.90828	61.09907	59.00878	16.52294	16.22970	18.54585	69.83012	42.34270	49.87216	17.89265	15.82942	17.60419	74.18260	53.81737	34.27980
16110	15.37061	14.30022	10.20393	22.39071	26.32579	26.32781	16.91151	13.04506	9.77577	16.54279	26.60271	24.24093	11.78701	9.37496	9.20959	47.93052	23.14929	28.50286
16270	9.41724	10.95374	9.95352	32.21437	20.37099	14.57529	10.11639	11.08120	11.34191	27.19693	29.43097	30.97351	10.52999	12.50108	8.50865	23.74194	23.24128	14.71095
16440	5.19279	6.49185	6.15705	29.19672	12.20707	6.48806	11.38951	5.41251	4.70964	14.22605	5.72125	5.33066	6.29883	7.31820	7.12852	5.21753	6.37858	8.09700	21.73	6.1	0.00	7.00	0.01282	0.01294	0.01700	0.00781	0.00582	0.00638	0.00471	0.01272	0.01697	0.00678	0.00688	0.00906	0.01497	0.01103	0.01204	0.00219	0.00619	0.00871
16600	8.96691	9.41328	7.32442	7.47447	5.49997	6.27349	12.58996	10.20933	6.71928	3.06638	9.63928	4.94161	7.21434	9.68161	8.87935	10.09397	9.73380	9.25209
16770	8.32407	9.02385	8.49567	14.41710	13.50323	7.77509	13.45285	9.62099	8.69817	9.59418	5.37717	7.28654	6.88657	8.67559	7.77154	8.55836	3.95180	8.99584
16930	7.74259	11.89702	9.32591	8.58991	8.47731	8.13866	12.16749	12.45541	11.61999	5.45764	6.97588	8.46684	9.24073	8.72093	7.95825	11.55905	9.84073	7.61616
17090	8.49207	7.18176	9.17245	3.38158	7.59259	6.47907	9.51235	7.12444	7.03250	5.80621	6.91828	6.16684	7.63202	9.98098	10.02063	9.37965	7.48971	10.53804
17260	9.39040	8.36807	6.46618	11.79838	12.31669	12.05989	11.53744	7.18776	10.62251	6.11891	11.48278	7.87968	6.07788	7.52833	9.09262	8.18051	5.87779	4.94855
17420	6.23463	6.38498	9.64618	8.91908	7.83707	12.16985	11.95343	8.31003	10.86811	11.14431	7.38970	9.21910	9.48319	7.48950	8.14470	13.61823	7.72660	7.40746
17590	10.67143	7.14870	10.10149	3.17696	5.21722	3.91921	14.56780	11.00750	8.89137	2.79781	2.85296	2.95126	8.79807	7.99054	6.52894	4.32710	10.20308	7.01167
17750	6.35031	5.05656	10.02505	3.41158	5.76520	6.61103	12.23543	12.75147	11.70302	10.69425	9.68712	4.61149	10.65869	8.08080	11.11529	3.75773	3.52605	2.41894
17920	10.09482	6.23186	8.44510	3.18785	3.01593	4.68265	11.11590	8.37282	8.91362	9.55410	7.82352	6.23374	7.47653	7.48730	11.03256	7.00051	6.81267	9.28504
18080	7.53198	7.65321	9.20252	7.35635	9.94622	22.28539	17.08619	13.47175	11.31919	5.74809	7.77363	19.44878	11.91017	10.73308	11.80046	12.34380	7.69527	10.51939	21.80	6.1	0.00	7.26	0.01282	0.01294	0.01700	0.00780	0.00582	0.00637	0.00471	0.01272	0.01697	0.00678	0.00688	0.00905	0.01497	0.01103	0.01204	0.00218	0.00619	0.00871
18240	10.79757	8.90683	9.84254	20.68703	6.57482	9.54306	14.07757	9.25524	10.46218	9.62319	17.45053	26.97218	9.09039	12.61990	16.17232	20.83963	37.42609	29.90750
18410	10.15791	10.94424	12.38028	28.04271	23.87063	23.03072	13.66514	15.65807	13.41492	22.32963	19.00592	31.45541	15.37715	13.52827	11.84447	26.89221	55.35462	37.54559
18570	12.63151	12.73644	13.16827	37.78664	22.26402	27.34216	12.79979	13.81482	10.58426	11.40590	8.71937	10.43605	11.05040	5.82613	9.84497	6.77789	7.65504	5.71428
18730	7.02734	8.89741	8.55875	15.18014	14.25005	18.16459	13.13717	12.71671	13.79229	13.72068	9.53676	13.38308	11.08656	9.24900	10.20715	16.13252	15.25089	8.38604
18900	7.64695	6.49892	7.20886	7.13106	12.78035	9.40957	8.13018	12.15750	11.90086	11.45971	12.35318	22.07956	10.14099	11.81048	14.68738	34.94465	27.81555	24.78336
19060	11.82007	12.30504	8.97617	16.17370	14.95138	14.48388	14.00158	12.62882	8.81245	14.49936	10.84221	10.51178	9.28595	9.30751	9.92342	10.67868	9.56159	8.37526
19230	8.39088	7.57881	5.87829	16.81920	20.96460	17.86449	14.93253	7.56654	8.36826	11.58220	10.56208	18.39971	9.43501	11.62540	10.28670	21.18249	23.83644	24.99526
19390	10.03747	7.35820	6.42865	14.22045	15.94996	15.18452	12.48040	10.35593	7.37514	8.41652	8.41218	8.51743	8.52463	7.53938	7.32448	17.46995	19.07320	14.72345
19560	5.00928	7.71237	7.32584	17.41781	6.27873	7.54895	10.55980	10.72775	10.37623	8.97313	9.26458	10.11306	8.88518	9.07180	9.15252	22.84524	17.99835	9.35919
19720	8.91113	7.45772	6.28021	8.27005	7.32254	6.70991	10.38999	9.26061	5.08035	3.51676	3.90741	8.59192	4.83309	6.87788	6.04150	12.84424	14.87163	9.24715	21.80	6.1	0.00	7.31	0.01282	0.01294	0.01700	0.00780	0.00582	0.00637	0.00471	0.01272	0.01697	0.00679	0.00688	0.00905	0.01498	0.01103	0.01204	0.00219	0.00619	0.00871
19880	7.60685	11.55673	11.10293	15.36135	24.31101	14.99272	12.54314	10.99678	9.58374	13.24885	11.10307	9.82623	7.86558	10.81131	7.14406	11.87036	11.18159	18.28543
20050	9.00770	7.20614	10.18887	6.19129	20.88463	9.24558	11.28243	14.29659	13.91941	13.37405	16.45515	18.49048	11.68485	11.52435	10.45609	15.88325	15.48086	8.79913
20210	9.15123	9.12882	9.99061	10.49972	5.52629	7.55943	10.09331	13.00619	7.48950	3.20318	7.09291	11.85547	9.25425	8.80562	10.03475	8.99122	6.75453	11.95310
20370	12.17641	11.24200	11.02805	24.10225	18.32473	21.48723	16.11570	12.69243	15.52380	25.96187	16.05332	16.81459	11.90712	10.43855	10.98535	15.71035	17.16130	23.56844
20540	11.07349	11.58530	10.72242	10.75264	12.63683	26.92790	13.72166	15.08203	12.90927	28.39017	19.86381	26.71788	9.67979	10.55200	10.50425	35.17518	36.54583	37.13277
20700	8.09005	10.68710	11.29468	19.38571	33.51260	19.35274	9.94076	10.49955	8.90497	17.54392	25.52482	24.11163	11.32685	10.74423	8.17073	10.78291	24.42077	29.66280
20870	10.73210	7.81985	7.37758	17.33992	10.63167	9.85457	7.00000	10.03692	8.53551	13.77701	20.07968	12.54109	7.98902	10.18383	4.86502	13.00625	7.07928	6.99040
21030	7.90167	8.99634	7.51723	10.41297	21.09488	16.79510	11.61990	8.02299	6.57602	8.85200	11.64022	14.31167	7.35369	6.59203	8.18855	10.63593	5.03600	21.33667
21200	8.04667	9.54325	6.15674	25.75441	18.53348	12.58900	15.32702	14.61959	14.84194	14.98052	20.86176	12.82796	12.48178	12.86624	12.05943	29.93012	30.76953	17.20336
21360	10.82116	8.33452	11.37112	12.88778	25.62050	28.00042	11.00794	12.37433	13.75416	24.02660	26.03446	24.73411	12.54953	13.40437	14.35284	37.58617	19.25862	16.25566	21.92	6.1	0.00	7.18	0.01282	0.01294	0.01700	0.00780	0.00582	0.00637	0.00471	0.01272	0.01697	0.00678	0.00688	0.00905	0.01498	0.01103	0.01204	0.00218	0.00619	0.00871
21530	13.48076	12.55776	9.23658	14.20206	13.77234	7.41575	12.08831	12.64292	10.56632	16.80113	16.22923	13.59109	14.81007	11.69083	9.87128	16.55792	12.48847	10.62664
21690	7.17388	7.50165	9.38545	11.12822	7.09975	7.99992	9.64154	7.53092	8.08879	14.45331	21.31642	20.70523	9.13223	11.21108	11.66921	10.08571	11.54259	8.90117
21860	10.09523	9.59168	10.57067	16.18804	16.13390	10.94697	11.77462	11.19582	8.72519	6.38380	8.44916	9.84029	8.61356	9.09572	9.38249	6.42206	7.44408	9.86340
22020	7.30758	5.41415	11.18246	10.83713	12.00848	20.40853	14.34986	10.17556	10.66929	29.17699	30.15687	20.82160	12.60441	11.50553	10.80711	45.67632	58.05605	41.52753
22190	10.63941	7.88114	7.58364	24.75218	37.56878	23.43829	9.05073	9.23063	9.83857	21.20875	23.43632	27.16455	11.62131	10.04624	13.15365	18.20863	25.05395	20.70751
22350	11.30035	10.25255	9.14736	19.53718	21.02822	27.80815	13.55054	14.11313	15.32717	23.07927	21.87220	15.60620	12.38178	16.25574	13.61510	20.25228	17.00043	10.19663
22510	12.60102	12.68358	13.63671	29.40581	31.99561	27.13738	14.32904	15.36615	12.37816	26.47786	24.25164	28.18452	11.15363	8.72296	13.33666	24.40862	17.97826	19.97929
22680	12.30848	9.00899	8.91858	14.47015	10.14237	18.85970	12.86787	9.57207	7.87180	11.02804	12.48275	13.85428	11.47475	10.29355	11.46262	14.22392	13.95350	9.98159
22840	9.62181	5.69651	8.23855	14.38589	7.65487	23.07940	13.03646	11.77942	13.84911	22.29606	22.06082	13.83131	13.35052	11.11258	10.10625	19.04052	12.65993	19.24552
23010	10.58329	8.54273	6.39919	28.68054	24.84635	19.83964	12.68530	12.21991	11.22970	17.20460	40.90830	36.30394	7.53899	9.12613	10.66349	40.36651	36.88024	33.96367	21.80	6.1	0.00	7.17	0.01282	0.01293	0.01700	0.00780	0.00582	0.00637	0.00471	0.01272	0.01697	0.00678	0.00687	0.00905	0.01497	0.01103	0.01204	0.00219	0.00619	0.00871
23170	12.68206	11.16728	12.25458	36.90865	26.42824	25.54317	13.24157	11.24212	10.35929	20.05244	30.96085	24.70600	9.59056	11.91008	11.79392	32.68666	30.03169	26.81996
23330	14.32764	12.40475	11.62321	25.01906	14.05584	50.07746	14.41556	14.36168	9.63903	30.92039	23.93262	23.65173	14.94583	14.64341	11.09509	38.35770	25.56113	26.85474
23500	14.26550	13.06324	10.78303	26.15906	36.91952	37.04299	13.40879	7.54159	7.61619	71.08922	34.46249	33.04502	10.51621	8.86450	9.31109	39.87480	24.45348	13.46058
23660	8.28910	7.87919	6.19853	40.69436	39.78690	29.64756	16.18662	13.77867	13.59808	18.73515	50.91465	31.31484	9.56072	7.65189	12.24382	23.31367	23.01859	15.84442
23820	10.99367	12.34757	11.38577	39.75697	23.08078	15.18107	21.13613	10.74984	13.25762	17.13390	25.05135	21.45175	14.42657	11.35027	13.21740	26.87248	14.89190	11.73637
23990	8.24694	8.96977	9.72427	31.07575	11.61364	10.37641	9.61805	6.37392	6.53124	13.40298	14.55147	11.52140	5.67057	6.23223	4.17108	9.34153	16.73691	13.69491
24150	8.88268	4.49153	6.94642	10.15216	10.27662	9.55802	11.59662	10.59057	8.57196	4.74776	8.15016	6.64254	9.67189	8.65170	10.10020	9.97465	11.46860	7.84790
24320	7.60748	9.99821	6.44096	15.66649	22.34494	24.23966	13.96705	10.91591	6.10008	28.91889	26.12020	12.48541	10.72714	9.03497	6.67988	7.51091	14.15239	11.57384
24480	5.85688	7.00777	9.27189	12.37352	5.62319	6.94493	7.63168	8.91888	5.19690	16.51117	9.25712	13.21620	4.95053	6.87077	4.67907	10.50337	9.31194	6.95430
24650	6.96314	6.60839	7.96856	22.90409	28.72961	33.13807	11.39128	16.10495	13.99144	12.48451	25.88841	17.12984	12.62987	11.02846	13.36716	13.66853	21.10001	16.21916	21.92	6.1	0.00	6.28	0.01282	0.01293	0.01700	0.00780	0.00581	0.00637	0.00471	0.01272	0.01697	0.00678	0.00687	0.00905	0.01497	0.01103	0.01204	0.00218	0.00619	0.00871
24810	6.60451	8.32385	7.90470	13.87655	25.54235	23.03920	13.62181	10.70022	6.79672	16.88236	19.73221	22.44426	8.70042	13.18986	10.04635	31.68929	12.09221	19.19357
24980	11.91710	11.56138	11.75754	19.03833	16.81399	13.28286	15.98102	14.20062	10.74659	30.66595	32.37470	20.19444	8.94138	7.99499	8.01136	22.91424	17.92264	10.49142
25140	7.34441	7.47812	6.12907	11.16402	22.02628	8.68823	11.93219	8.55644	9.88645	12.76512	14.98370	12.97697	8.22505	11.33016	8.72456	28.35615	27.42415	14.04869
25310	12.63602	10.16268	10.79872	16.68313	27.71313	27.48952	15.82856	15.88284	10.21827	12.04511	21.55553	19.27646	9.96642	9.73289	12.39399	23.45180	36.38051	38.77460
25470	8.03253	7.76011	8.67143	10.27388	22.90710	15.97604	9.30664	10.55428	8.41112	26.87795	18.07500	8.75355	7.88284	7.18578	5.79518	14.47465	12.46869	19.48484
25630	7.74226	6.07613	7.44624	9.80795	7.99915	8.27624	12.66012	11.32468	12.00160	10.22382	5.19342	10.64406	8.85881	10.43684	9.55810	17.35205	18.88250	13.79982
25800	7.18943	8.32201	11.14119	11.09879	10.92676	16.35877	12.17361	12.92890	12.17408	24.46214	34.38012	17.90979	11.65743	11.61556	11.78511	46.91977	41.55847	22.80781
25960	9.42175	8.96396	9.95826	27.71509	28.80646	16.95066	11.41870	8.14977	8.61868	20.04492	13.29301	7.25083	10.24068	10.35755	10.01406	11.98974	12.94322	17.34479
26130	7.44885	9.44521	7.51355	4.05101	7.51927	17.37170	9.40021	8.56794	6.17330	15.38274	13.72371	14.31709	8.35997	6.10793	5.67191	13.13446	12.84190	11.66333
26290	10.39170	9.27867	11.24833	10.30530	9.11242	7.02798	10.06518	11.57784	10.88891	11.69936	11.09414	8.98902	14.46407	12.18159	13.94826	16.74849	21.37960	24.25032	21.92	6.0	0.00	7.20	0.01282	0.01293	0.01700	0.00780	0.00582	0.00637	0.00471	0.01272	0.01697	0.00678	0.00688	0.00905	0.01497	0.01103	0.01204	0.00218	0.00619	0.00871
26450	10.66257	11.43470	10.74533	25.63807	18.06596	7.45848	12.71519	11.35439	7.08277	7.99155	8.37795	9.53708	7.41400	7.51693	8.79522	2.75107	3.52312	2.55932
26620	9.62965	8.15945	8.38321	3.49086	3.31397	3.68030	8.01005	8.69397	8.34229	4.34897	4.36181	4.14309	6.07212	7.90750	6.95815	6.17275	2.63036	5.92528
26780	4.62345	4.33524	4.43137	3.62241	4.15638	5.07033	9.39899	6.73752	8.38532	12.10532	7.01295	7.40939	8.03821	5.19119	9.36788	6.58168	7.63844	6.31346
26940	8.19698	6.94060	5.68238	3.44128	4.53116	6.39754	6.58508	7.14202	6.61335	3.98441	6.60168	11.66766	9.84359	8.14642	10.55316	9.11638	10.91008	16.18100
27110	9.69329	10.51064	10.11509	19.83438	48.67459	30.08201	13.63505	14.64303	10.53738	23.07955	20.60395	24.60763	13.72250	12.36776	12.65770	50.92575	32.32263	18.59908
27270	11.05688	10.30875	12.00990	12.21450	21.87135	39.39679	13.80754	15.33026	14.79471	21.22577	16.54674	41.52755	14.30326	11.36117	9.83914	40.08223	16.77572	19.13700
27430	12.30073	10.10837	11.73525	31.06246	33.00843	19.08728	14.17327	16.42264	8.23299	19.79888	20.37357	10.25563	8.82701	5.95439	8.87284	10.80026	9.13194	10.53535
27600	6.97766	10.63718	7.29536	10.11305	9.18338	16.03562	10.33389	12.44039	11.32859	15.08388	7.90926	6.70795	6.69877	10.12132	5.60928	8.39281	21.88722	9.49249
27760	7.54369	6.90763	4.19099	14.21887	11.04606	6.66715	8.17571	8.89442	7.52175	12.63292	10.65781	8.68786	10.67206	12.01033	9.53421	15.75935	7.77933	31.30502
27930	11.50843	10.36768	12.91602	25.05472	28.19635	25.56538	17.89665	14.98187	15.93457	51.87358	28.34565	19.86084	15.63690	16.86190	15.73761	42.22416	33.28734	26.27485	21.92	6.1	0.00	6.44	0.01282	0.01293	0.01699	0.00780	0.00581	0.00637	0.00471	0.01272	0.01697	0.00678	0.00687	0.00905	0.01497	0.01103	0.01204	0.00218	0.00618	0.00871
28090	15.00603	17.15677	14.35645	21.51777	23.89817	29.05816	19.76767	16.48141	13.64632	23.07572	9.71387	19.73993	15.41635	14.82423	17.57589	29.71690	25.69506	48.53971
28260	10.54102	16.10337	14.85539	55.66957	39.23197	44.16584	14.80667	14.97473	12.70948	50.79681	41.78547	44.71823	10.62488	12.33746	12.26634	22.00687	20.97053	17.23938
28420	13.45429	11.77395	13.65055	19.81735	28.27148	26.39268	15.10712	13.61272	12.71943	12.18260	28.13456	27.80286	9.10000	6.99084	9.37079	31.99779	34.53767	52.76484
28590	9.65305	9.46510	10.12595	35.89610	29.45624	31.39118	13.77997	10.74841	7.53934	25.05434	13.12216	15.99945	7.87921	3.55911	6.45907	10.77107	21.86498	15.98346
28750	8.75134	8.83615	8.98582	7.65135	10.40614	8.53424	9.21144	8.76306	7.88907	6.06356	10.61213	18.43484	10.73175	11.83231	15.24544	38.94848	24.81240	25.73741
28920	13.31822	15.61908	16.14779	67.71883	57.15833	40.89916	19.34788	16.36937	17.96747	41.23931	32.10449	28.40446	15.22865	17.86545	15.81502	19.77705	15.50318	21.40299
29080	16.97728	16.30579	18.03703	21.75240	24.36980	43.14859	18.84062	14.33383	15.09750	43.87813	40.84623	26.56570	14.68740	13.57679	12.30535	47.48705	58.19444	53.28523
29250	9.45410	9.42874	9.16178	26.65455	26.34008	25.48485	12.82478	11.68049	5.85573	11.69040	8.46979	13.16701	9.34296	6.32265	8.22120	13.04453	13.74971	5.06237
29410	7.87388	6.02667	8.24262	9.90211	11.52497	11.02006	10.21019	12.60532	9.22060	20.20887	19.57559	22.93609	11.01394	11.76483	12.96609	17.62575	24.25724	20.86510
29580	9.02534	12.11732	13.68710	46.70249	16.36138	16.04355	10.82011	13.40986	14.47273	36.67673	32.14935	26.71758	8.53707	10.78853	12.65960	17.91192	25.42395	17.68936	21.86	6.2	0.00	7.21	0.01282	0.01293	0.01699	0.00780	0.00581	0.00637	0.00471	0.01272	0.01697	0.00678	0.00687	0.00904	0.01497	0.01103	0.01204	0.00218	0.00618	0.00870
29740	11.89137	12.10842	9.48045	27.28499	39.29591	58.14742	15.71728	13.39344	13.85278	36.14147	39.30997	29.23104	13.41054	14.22630	12.37509	23.55607	24.36761	15.93509
29900	11.85193	10.51379	10.45035	13.54719	14.69838	11.00087	12.23851	12.01934	5.47436	5.68236	13.82672	9.58257	9.02314	7.89434	5.95004	13.28294	10.94449	10.31165
30070	6.78610	9.25125	7.84381	11.26975	9.31205	10.17988	12.12106	10.52711	7.73972	7.46294	7.97593	7.75216	7.85838	6.38250	7.38992	6.54254	11.18032	7.76252
30230	4.96093	6.30277	6.70013	6.38678	7.24443	9.06142	5.43530	6.88222	6.48016	7.81457	13.20000	8.96109	11.35304	9.99420	8.36878	27.36043	21.52851	33.15386
30400	11.96773	9.62211	14.71489	23.61564	17.00600	18.79141	14.68694	11.43595	11.10060	16.89983	15.83577	22.75299	12.75302	10.18959	7.91759	24.66532	22.19965	29.59878
30560	9.06408	6.72353	4.50159	21.80362	17.96516	12.13060	11.03601	12.64456	11.83258	16.28971	15.39484	16.66386	11.18666	9.74561	8.19799	6.64421	16.11637	14.82308
30730	10.46381	9.37382	12.73821	15.87105	12.46647	12.07193	15.25337	9.24381	7.08412	17.90040	13.44654	18.71379	10.84185	12.39820	13.75427	11.17814	16.37891	18.38112
30890	9.39172	11.91195	11.64189	8.42065	13.92229	17.50555	10.31145	13.54604	11.68706	33.63283	25.23801	25.43754	15.73776	11.86233	11.86046	42.76679	41.10470	48.31146
31060	14.27217	13.24492	12.87262	20.23255	31.23637	22.84732	16.43429	13.82646	13.95600	13.82160	15.26075	14.62574	11.24232	9.65563	8.96793	18.97372	20.92174	16.37833
31220	6.49582	6.33926	6.62986	16.86614	8.26731	3.74891	10.52919	8.67843	11.29387	8.24989	8.11252	6.69429	11.27965	7.35248	12.50007	26.50256	12.39824	23.72792	21.99	6.1	0.00	7.20	0.01281	0.01293	0.01699	0.00780	0.00581	0.00637	0.00471	0.01272	0.01697	0.00678	0.00687	0.00904	0.01497	0.01103	0.01204	0.00218	0.00618	0.00870
31390	9.33768	10.27499	10.47406	22.25960	16.64836	33.69279	16.92867	14.55070	12.99937	40.99534	38.53963	25.30427	11.76417	14.96506	15.15801	41.97423	37.34995	49.45733
31550	13.88812	12.41068	16.92979	46.29921	49.89465	40.78221	16.59030	15.46297	16.43518	50.19910	32.15223	36.83392	17.98370	15.69978	16.83487	57.62032	77.44829	24.86702
31710	13.96524	7.85895	9.68288	29.01976	18.78470	20.57460	14.20555	13.51466	14.96956	10.21273	10.01552	14.47404	13.10901	11.74406	13.25752	13.56991	13.79774	16.36157
31880	8.72004	7.96216	7.61855	20.79416	10.03162	13.21027	9.21367	11.47694	8.35187	25.18694	14.44848	16.89130	9.48875	8.45158	9.69565	21.14055	14.73377	17.95906
32040	10.60643	10.13538	9.09731	17.82387	18.26740	21.64953	8.12924	8.64719	10.56038	13.65050	13.90468	10.01969	9.24981	10.16460	14.55323	23.40816	21.75422	18.22654
32200	11.93957	13.95663	9.94360	24.72284	34.15637	30.77992	13.84292	10.89135	9.57629	10.49777	13.01742	24.11808	10.24050	6.80992	9.59573	18.05856	14.81539	19.19230
32370	9.34632	7.73923	9.62661	36.92024	41.43650	18.17518	16.31141	13.60658	13.25063	30.21229	42.84362	19.00723	10.21935	13.22778	15.98962	19.82972	21.28788	28.21892
32530	13.12929	13.12345	14.13576	23.87418	20.39143	12.78131	17.69018	15.69568	11.08605	19.66766	38.17399	38.87218	14.70652	11.71822	14.38320	20.63162	24.09885	38.72276
32700	10.19937	12.93335	17.14667	31.89206	25.06272	34.08189	18.04924	14.22776	11.97043	18.03598	13.42403	14.76082	11.17493	13.17968	10.42009	15.75416	21.06379	18.86543
32860	9.31056	7.47952	6.69643	31.35836	20.41696	26.74009	10.23030	8.60519	7.98949	19.30158	11.72628	19.13924	8.46842	6.76288	6.78867	17.47604	17.57197	10.96423	21.86	6.0	0.00	7.21	0.01282	0.01293	0.01699	0.00780	0.00581	0.00637	0.00471	0.01272	0.01697	0.00678	0.00687	0.00904	0.01497	0.01103	0.01204	0.00218	0.00618	0.00870
33030	4.96336	5.58412	6.59555	10.40156	15.63759	19.44137	12.16607	10.27306	10.44600	14.77798	14.74147	17.31905	6.50560	8.03230	8.62378	16.03330	14.13093	22.01204
33190	9.97677	8.96906	9.99118	12.84206	14.44901	13.44551	13.62513	12.41467	11.49239	9.93013	9.92479	13.22574	12.36341	12.92384	12.39126	14.76798	18.53904	15.31191
33360	12.67632	10.57315	10.92742	18.26089	21.51189	21.48668	14.05935	12.23375	11.11159	24.74247	19.61610	22.47203	7.66725	14.86522	12.79362	18.45179	25.00447	18.59511
33520	8.93099	10.08372	11.79915	18.05585	22.61281	19.76046	12.65063	12.57491	9.54957	11.56463	20.59882	15.88136	12.44811	10.50273	11.24073	15.77003	12.67437	22.96103
33690	10.96986	14.16703	12.64399	30.84916	53.40668	23.18324	10.92864	10.44724	8.12038	9.25809	24.99802	24.81341	5.76247	5.25854	9.11866	36.39725	19.60930	65.77729
33850	10.09176	6.11804	8.81462	23.98760	21.61387	18.28253	15.51278	15.15488	10.47819	21.65230	17.71352	32.03693	11.63728	15.13085	11.67442	24.66420	26.54519	12.08566
34020	13.93373	12.36393	7.28231	33.83826	26.39051	26.80225	13.47769	10.07189	11.63288	26.04616	18.29843	36.66226	8.20427	10.02766	13.27219	31.66039	32.88074	35.41998
34180	6.27585	9.16203	12.25717	38.80971	24.25945	32.84378	16.99072	14.15960	12.39841	33.38343	33.52726	30.43389	12.71406	5.60845	9.58065	40.86979	18.71798	21.04784
34340	9.80904	10.79949	9.39512	17.80185	21.51006	17.93217	11.95118	8.93629	7.74624	6.87219	5.36116	11.41116	3.83616	5.02223	6.94807	14.94706	7.64192	13.53950
34510	5.83146	6.81811	5.73239	26.80120	21.42661	16.66741	11.56116	12.22822	14.52020	31.83000	60.40770	68.09344	11.53586	14.01067	12.26111	67.54099	62.05459	38.45737	21.92	6.0	0.00	7.56	0.01281	0.01293	0.01699	0.00780	0.00581	0.00637	0.00471	0.01272	0.01697	0.00678	0.00687	0.00904	0.01497	0.01103	0.01204	0.00218	0.00618	0.00870
34670	12.70490	11.87633	10.84299	46.38638	30.93637	46.22656	16.97951	17.12804	10.89448	37.52372	21.74159	34.98634	15.05552	10.52548	13.57205	43.57657	49.98409	58.39716
34840	13.33039	12.29658	11.48126	64.38655	44.65026	22.48132	15.47652	16.06433	14.31225	28.32571	35.22790	36.41744	15.45384	11.40832	9.55835	20.72708	16.01549	7.08757
35000	8.78750	7.56367	9.45868	8.34485	6.74770	3.87574	9.54275	8.14406	10.84315	6.12419	6.56927	4.22116	9.88877	6.61085	3.96640	7.28905	6.07211	4.04548
35170	6.87341	7.13860	10.17122	4.21861	9.33810	7.28042	8.02407	11.21195	9.18214	10.35690	13.69686	17.77170	10.22335	8.49111	7.94334	17.43762	13.19063	11.14904
35330	9.78095	8.98203	8.52513	25.20556	9.86872	11.46037	10.34793	7.73952	7.28614	15.24561	23.17038	21.36653	15.87191	11.51459	9.35660	16.18639	33.83148	22.44236
35490	8.63551	12.67571	8.80044	18.06532	11.06760	28.94287	11.48497	10.70655	11.76038	33.31417	32.02740	35.34881	10.29052	12.07562	14.26072	44.25031	39.67130	36.19745
35660	12.76787	9.43900	11.08184	76.00812	22.35355	30.91160	14.26911	12.69792	11.51398	40.48728	26.44159	46.09043	13.79572	12.40253	10.63957	60.54583	36.66435	20.60237
35820	8.65044	9.87068	9.16006	20.99635	35.22877	19.15709	5.69105	3.80335	4.91188	20.22182	14.52021	18.93761	8.20482	7.81384	5.62867	24.37975	24.19024	26.62367
35990	12.35850	8.71364	11.16370	22.98160	36.56867	21.25552	17.38195	16.22101	11.87056	28.11333	30.98081	32.11228	12.12310	11.62054	7.98133	26.80632	11.07671	17.23929
36150	6.91891	7.51989	9.06567	23.08690	28.01438	27.24975	13.03610	12.52560	9.81922	17.07418	14.74762	15.37242	8.48139	6.07117	7.30987	6.98016	6.56758	5.84438	21.92	6.0	0.00	7.23	0.01281	0.01293	0.01699	0.00779	0.00581	0.00637	0.00471	0.01272	0.01697	0.00678	0.00687	0.00904	0.01497	0.01103	0.01204	0.00218	0.00618	0.00870
36310	3.43755	5.18026	7.32006	6.73914	9.45691	8.20643	10.37514	8.41001	8.30984	5.76471	12.39904	9.00584	5.80155	4.93399	5.98508	14.14609	15.01829	6.83799
36480	7.58619	4.50299	4.85133	8.60517	8.00345	14.87319	6.80208	7.25836	6.79412	7.85136	8.92596	14.16221	4.40326	9.01459	10.03021	16.87254	18.11673	11.65359
36640	11.40838	12.79292	9.75409	8.79062	17.12033	17.10685	12.73355	11.38831	10.95661	26.77583	21.43216	18.23013	8.56323	10.68255	12.07808	39.19411	34.87931	29.04835
36810	9.56979	12.18558	12.70141	24.07224	27.68159	21.76435	17.25674	11.85833	6.93492	23.79137	26.09669	38.91620	10.50008	13.34706	9.93287	25.37536	35.15798	17.64227
36970	8.67570	9.35273	9.01785	25.86426	20.37281	21.07512	12.60574	8.30452	10.88850	11.07182	10.74079	9.98286	8.57732	7.99542	8.76087	17.66349	14.73959	15.50275
37140	9.07611	7.61881	7.78694	19.60771	24.52854	14.94390	11.20287	11.99031	11.66642	18.96516	32.48662	21.59143	11.73861	10.30851	14.12090	19.89771	38.11200	42.23746
37300	10.68925	10.68081	10.84914	51.22008	38.24788	21.78018	13.97807	11.14789	8.50336	21.39161	14.31862	12.57916	9.61230	6.85640	5.76797	19.94961	15.35860	12.94561
37470	9.36997	9.07410	6.60658	5.61912	7.13230	6.25281	11.98988	10.17682	10.60086	10.07858	10.69830	12.09161	6.94783	7.82262	10.80339	15.47946	23.56159	27.40143
37630	9.86411	11.44106	11.17006	26.64134	14.62864	23.42307	12.71404	17.43776	11.74340	20.68748	29.86277	24.31155	11.60347	13.39715	12.05990	41.13701	31.03336	25.77043
37800	12.15424	12.13660	11.78257	22.76690	17.64428	34.27221	16.86041	12.72374	9.12042	27.23859	31.25622	14.76879	9.54613	8.64048	6.71284	12.99735	23.62771	25.39818	21.92	6.0	0.00	7.22	0.01281	0.01293	0.01699	0.00780	0.00581	0.00637	0.00471	0.01272	0.01697	0.00678	0.00687	0.00904	0.01497	0.01103	0.01204	0.00218	0.00618	0.00870
37960	7.67544	7.61423	9.71654	8.94049	12.76666	14.01647	8.78948	10.77225	6.49956	9.74023	12.64595	11.38361	6.16695	7.38850	7.62609	17.69225	20.34421	14.99348
38130	7.50582	7.79572	6.93910	15.96641	19.33229	13.50314	14.14522	10.86544	10.00563	16.64011	19.52457	22.39200	9.09616	8.43242	13.20043	21.38335	24.35036	20.44764
38290	10.50294	7.29627	9.86515	23.21438	20.84340	20.62474	11.87266	17.07193	11.42560	9.51995	19.28939	29.76013	10.71027	12.27537	8.98978	20.00981	17.61454	11.95170
38450	8.94882	10.91418	8.36129	11.42308	18.77001	30.54389	13.77538	7.91034	11.78298	25.48336	25.03076	29.11036	11.56447	13.06629	13.97579	27.44176	21.76562	21.19651
38620	7.97490	13.53628	10.13012	13.02942	17.43984	16.29969	12.05733	9.40037	10.90539	12.49463	10.28853	15.72163	9.49707	12.63312	9.40697	21.83253	24.94613	28.82169
38780	11.38168	6.98539	5.53314	19.67777	20.21836	17.35795	9.72814	5.81919	7.10317	7.10721	6.34622	10.04940	9.93773	7.18645	12.16767	11.30320	5.32855	6.41023
38950	9.01283	6.80082	8.45499	9.72212	9.23509	11.20890	11.18491	9.74368	9.04708	17.99822	17.23416	19.67254	6.57311	7.18441	6.41501	12.80736	20.57938	23.20267
39110	7.91963	5.20678	5.81767	12.72268	8.78146	8.04774	7.01292	6.29270	5.39481	16.02365	11.21313	7.87303	6.79196	6.90320	9.03489	5.51340	14.43572	8.08653
39280	7.66062	7.32821	8.44261	11.42501	9.98905	10.20555	13.96784	12.79677	14.78179	14.39104	23.06500	17.63760	12.51592	10.08678	9.27666	10.52303	20.78018	24.65225
39440	11.25818	7.74685	9.57552	11.74558	9.06679	14.98120	10.37177	9.15110	11.99076	26.36571	31.52081	26.04251	11.52612	12.04944	12.67772	28.43083	27.26642	22.38981	21.99	6.1	0.00	7.20	0.01281	0.01293	0.01699	0.00780	0.00581	0.00637	0.00471	0.01272	0.01697	0.00678	0.00687	0.00904	0.01497	0.01103	0.01204	0.00218	0.00619	0.00870
39610	11.95020	14.40463	9.83339	23.36563	21.62971	19.31317	18.25553	10.68867	10.20430	22.98271	25.96499	25.78900	9.03498	9.37262	11.05815	18.89281	21.79389	22.33143
39770	10.96910	9.29692	9.67589	17.31664	18.74305	16.27412	11.45044	11.66532	9.93611	10.13554	18.85589	25.10003	9.23317	10.07226	8.61561	26.26680	16.37979	18.21449
39940	8.33668	6.52571	5.97141	13.29953	12.45777	12.78091	9.59589	9.43610	12.04735	6.40156	11.17917	11.01634	7.41900	3.76159	8.02591	10.18831	9.10390	8.75152
40100	11.88015	6.54598	7.35884	16.23907	20.53381	22.61036	13.45685	9.06296	10.73526	16.15289	11.69880	15.89360	13.57131	10.66364	10.61490	15.55814	13.66962	16.50054
40270	11.05855	7.44735	5.94202	15.42598	21.68094	11.28273	12.08725	7.07029	8.35123	6.17005	5.97647	8.38340	13.69983	8.25663	7.78655	9.80791	10.89335	6.90138
40430	5.18566	5.71772	7.21125	6.73367	2.44897	3.07394	11.35145	10.91560	6.27761	7.33239	5.91447	3.98486	10.82009	11.27466	12.86760	5.90294	9.19077	17.51873
40590	8.15056	10.70002	12.38516	13.79534	6.64714	9.25872	13.06874	13.62557	9.58299	12.36852	14.79019	6.75800	10.10891	7.09239	6.17185	14.44563	12.14615	11.22429
40760	6.21376	7.29162	8.19462	13.03664	9.84329	3.79864	11.85063	8.07608	11.16095	4.40484	8.33045	4.42643	12.26851	10.59613	10.41760	5.04331	8.00193	4.73037
40920	9.49734	9.30818	8.70511	12.42829	11.91556	15.33193	18.72906	14.53279	13.70059	27.46394	15.95117	13.71399	13.85828	12.81850	10.03779	21.94353	18.73000	32.66733
41090	13.33646	9.53630	8.84308	17.21994	10.44095	14.27812	10.06077	10.83829	9.45542	9.87623	10.87207	11.94582	10.67929	10.48609	10.07278	6.93648	8.00137	14.52966	21.99	6.1	0.00	7.19	0.01281	0.01293	0.01699	0.00780	0.00581	0.00637	0.00471	0.01272	0.01697	0.00678	0.00687	0.00904	0.01497	0.01103	0.01204	0.00218	0.00619	0.00870
41250	9.16494	9.16286	13.12632	7.56581	11.81459	7.84597	10.01422	15.16990	12.00011	10.95291	9.82057	10.37619	13.48805	12.62305	11.81859	12.74976	25.90208	19.42684
41410	11.19969	10.26418	10.03606	15.21500	23.41006	16.20126	13.13836	13.72339	11.76786	11.86619	18.00635	20.43827	7.18488	6.83599	7.24233	23.72616	21.65488	16.04915
41580	7.01372	5.78383	5.65147	28.07948	33.99104	18.15999	12.65518	12.72033	11.62338	20.06162	38.84822	34.73968	15.73611	14.32564	17.64769	27.24255	37.38093	42.31774
41740	14.79116	11.72023	11.66872	38.01936	29.81550	22.69765	12.46158	13.98605	11.31941	25.66484	33.20002	36.02383	13.25637	13.31345	11.19101	23.80803	26.36599	23.14808
41910	7.93277	5.81479	7.14329	25.21291	18.94030	17.09911	14.61353	12.29102	14.00690	12.27026	17.61410	19.62331	14.12424	12.79066	11.58439	20.07832	20.18639	21.39173
42070	10.16759	7.65858	8.47718	5.26651	3.10003	3.72090	9.78231	4.52758	6.97793	4.74030	3.15754	5.45604	6.31627	6.50429	6.80918	6.29940	8.42376	13.58579
42230	3.90315	4.19949	5.24546	10.64030	11.80067	8.14456	11.83731	14.75024	11.01756	17.57320	10.24869	16.30519	11.08784	9.14689	10.92583	25.74424	16.83680	12.23180
42400	9.21745	10.91518	11.49157	14.19387	10.23641	12.79025	14.44766	9.54029	8.30632	15.55677	18.37403	10.19837	10.01662	10.27104	12.67831	26.40379	24.96932	10.98519
42560	10.33193	10.28980	11.50089	18.51351	18.43025	24.61302	11.81190	8.91620	9.88566	18.48212	15.00381	17.15652	10.81121	7.17186	6.72457	15.86989	11.86437	21.11897
42730	6.08689	10.28506	10.35062	23.85935	8.45189	24.07603	15.18101	13.86650	9.50019	20.96407	20.37633	17.68584	11.85158	9.39401	11.98909	21.77160	9.64542	11.75551	21.92	6.1	0.00	7.19	0.01281	0.01293	0.01699	0.00780	0.00581	0.00637	0.00471	0.01272	0.01697	0.00678	0.00687	0.00904	0.01497	0.01103	0.01204	0.00218	0.00618	0.00870
42890	10.76921	11.46922	10.24443	10.97927	19.07622	28.03259	10.55598	12.27552	7.04042	30.08807	26.00587	26.16626	11.25498	10.11743	9.06484	34.28608	37.33608	24.43124
43050	11.81061	9.34680	10.31650	14.82241	20.57628	20.75004	16.44027	11.82484	8.86845	22.11437	13.01446	9.27815	10.12618	12.33017	8.90649	14.96507	19.09167	14.03328
43220	10.63629	9.22290	9.71281	12.22138	9.09625	9.27942	12.03001	12.78348	8.41065	10.60104	10.06044	6.49725	9.97705	11.05509	10.88816	11.77461	11.21146	9.70271
43380	10.72076	7.96444	8.97340	10.70357	8.45210	10.59368	15.50395	11.92119	11.47146	11.48213	13.48251	13.62511	11.86296	11.92178	10.39724	26.01383	26.23336	33.31931
43550	10.20451	10.60188	14.35547	15.94215	12.54485	21.08058	10.22974	15.45951	15.23634	27.75613	15.55075	20.58139	10.04440	13.39432	11.90695	17.18398	15.60802	19.37573
43710	13.01646	12.38509	9.93177	19.20887	25.40162	21.23905	16.17431	11.89042	15.18010	24.61070	41.13069	13.97743	12.82726	12.12050	13.20743	18.24195	29.44249	18.59632
43870	12.93031	11.20191	12.25308	27.17051	26.40382	25.55631	16.23569	17.25707	13.24494	18.23180	20.66080	41.83241	13.93465	10.82925	11.16370	13.50633	9.06837	21.85915
44040	13.09354	7.63497	8.95181	11.72346	13.74232	17.08409	11.71322	12.87699	8.38121	8.63182	13.21564	12.79741	6.29297	9.41654	8.88485	17.15989	22.10528	13.26665
44200	7.73631	8.39335	7.45111	29.12460	30.65053	23.62657	10.16268	13.42852	10.61571	19.67260	18.83742	22.52697	12.73520	9.34356	10.93283	29.77888	28.63911	15.60597
44370	11.01185	10.88481	9.20690	13.20802	14.89925	26.70368	12.14203	13.71636	11.38314	29.50063	20.40428	25.19130	10.98946	8.51618	13.92530	16.25207	17.97759	28.34558	21.99	6.1	0.00	7.23	0.01281	0.01293	0.01699	0.00780	0.00581	0.00637	0.00471	0.01271	0.01697	0.00677	0.00687	0.00904	0.01497	0.01103	0.01204	0.00218	0.00618	0.00870
44530	12.93072	11.00482	11.86628	16.01613	27.68083	19.16520	15.42455	10.70629	11.60019	25.36334	28.93732	31.96344	10.50578	10.79294	13.66144	25.03035	16.97244	18.37582
44690	11.00255	10.45032	12.25419	17.40777	29.66066	25.85133	12.69119	13.55509	11.84135	39.79744	18.21295	20.17134	11.03597	10.15331	8.71781	17.14035	31.42478	14.99995
44860	8.36821	11.59570	9.21078	18.92089	19.74788	24.11602	12.12723	12.24956	8.25468	16.59414	17.15515	27.10823	11.59340	7.87570	7.82096	32.07363	33.85408	16.34469
45020	10.46170	9.19132	9.34353	10.27983	12.09388	16.47491	10.57079	13.75614	10.42864	16.67617	6.08966	10.42853	13.51672	9.65717	10.22475	20.99333	26.71181	12.05405
45190	9.78280	8.66228	9.87562	39.17308	21.32417	34.88992	14.60504	10.96598	11.26235	25.24937	19.24763	12.53008	11.29503	10.01316	11.36351	35.12712	21.86505	23.84430
45350	11.71533	12.98706	11.08935	18.95722	24.87969	17.15317	11.57315	11.95459	8.53606	15.88061	11.35292	10.44139	11.18170	7.45082	7.40122	9.80983	15.68616	13.58668
45520	9.99147	7.83439	7.47623	9.71571	10.84556	18.75318	14.27143	16.30672	14.26282	7.42824	7.29316	22.70752	12.77422	10.91559	13.26427	24.24199	17.25020	12.76821
45680	15.63481	16.35611	17.31919	17.47089	29.05341	21.36731	18.28941	14.86053	14.25340	37.73767	31.44654	22.05158	13.08123	14.57087	11.13290	26.39226	24.69868	30.24387
45840	9.88846	9.50441	8.63477	31.36754	19.27215	21.61148	9.99890	8.93073	9.80409	21.52977	18.70272	10.65049	12.19170	10.20088	8.14186	18.18101	19.30500	20.52114
46010	10.29565	10.47013	8.32329	12.87230	17.39474	25.47842	11.56055	7.51188	8.87757	16.41649	24.82475	20.95831	6.08576	5.46211	7.02892	19.19307	14.13313	27.54486	22.05	6.1	0.00	7.19	0.01281	0.01293	0.01699	0.00780	0.00581	0.00637	0.00471	0.01272	0.01697	0.00677	0.00687	0.00904	0.01497	0.01103	0.01204	0.00218	0.00618	0.00870
46170	6.92537	9.66108	9.89921	21.07398	10.53175	14.29585	14.83338	10.59249	8.31881	15.06020	19.08208	11.39166	9.04499	7.98908	12.40828	28.30047	26.82581	16.78131
46330	10.89645	11.05610	11.53473	18.07655	21.84262	15.60550	13.95810	12.33628	14.01705	28.37302	16.15631	15.88019	7.83951	5.75438	11.55101	21.78877	16.54671	12.67870
46500	9.42051	7.14861	7.32538	23.51816	15.61477	18.51621	10.97916	14.91309	10.15725	20.06517	22.19437	32.86294	8.23978	6.08335	8.83112	20.28485	35.02809	33.47880
46660	12.19862	7.86911	9.20876	17.67250	16.00272	14.40622	11.81902	14.36304	13.62561	12.87963	22.99157	17.38816	10.64240	9.59853	9.11244	20.14717	16.21663	10.24232
46820	10.26783	10.43068	10.45032	18.89593	19.70572	15.58889	14.14413	14.53058	10.01397	20.90841	24.02604	39.73992	7.15327	8.00753	7.60399	26.63960	26.80479	13.35139
46990	7.96727	6.34864	8.99335	19.49964	8.98563	14.97286	11.85146	8.04943	6.53601	7.48174	9.79759	17.87448	6.76328	10.92416	9.20039	22.67402	25.57960	25.88356
47150	9.69165	10.78889	11.32921	25.51063	46.43159	32.74782	14.63676	12.88495	12.49438	21.86828	26.15077	13.75407	8.93406	11.54597	11.87618	13.01910	13.05766	17.44345
47320	5.82429	6.18571	3.58115	10.92535	18.86141	16.11002	7.04209	3.64451	4.19155	9.84594	4.94605	6.87369	6.18932	8.75895	6.74049	7.45240	5.69741	7.55834
47480	6.12778	10.88421	12.96506	12.40627	17.53479	12.54109	12.60022	13.45360	10.24609	32.16166	24.24923	14.59379	12.36568	8.23362	11.58134	29.81211	30.10684	30.87709
47640	10.93557	10.34726	10.19372	28.55499	19.18815	23.86275	12.54654	12.27118	8.62785	15.77131	14.05528	16.25016	8.18274	7.50975	5.29926	27.29398	11.28784	9.70135	22.05	6.0	0.00	7.16	0.01281	0.01293	0.01698	0.00779	0.00581	0.00637	0.00471	0.01272	0.01697	0.00677	0.00687	0.00904	0.01497	0.01103	0.01204	0.00218	0.00618	0.00870
47810	5.43891	9.96093	9.56110	19.54536	29.41051	20.88211	12.14029	12.86111	11.67831	28.10817	19.85006	12.40212	8.94497	9.37447	7.69655	12.85958	6.27345	10.98191
47970	10.42585	9.20109	8.41002	6.66840	9.67726	7.86167	10.80791	7.25179	8.25294	15.22175	11.20093	10.06821	5.77618	5.10708	8.10566	6.03069	18.66408	22.17057
48130	9.47739	7.04658	10.92554	12.59660	8.01721	22.79758	10.07705	13.48726	10.89169	8.84523	14.06838	11.58990	9.17410	10.57255	11.54969	29.25610	33.12803	46.43664
48300	12.69106	16.51511	15.28241	46.57908	41.92680	23.02533	14.28404	15.20308	12.07683	56.62749	30.56310	28.31829	13.61979	14.91592	17.56918	23.12137	19.57139	39.67764
48460	11.30917	13.09374	9.91390	17.57451	21.34892	12.11968	17.43320	13.29943	10.13213	16.27153	16.54132	13.57885	7.20263	10.83287	10.34571	18.45948	30.94757	15.48689
48630	13.61295	9.76590	10.03122	13.90500	12.92434	18.89625	15.19981	12.17765	11.09566	20.18584	15.69126	16.78003	8.27148	7.93077	8.69480	19.08066	18.68455	19.25714
48790	10.58987	7.86478	8.65286	21.91726	18.69312	8.87721	11.09520	10.17078	9.10907	12.34954	7.28541	11.23047	11.86632	8.80328	7.68418	13.47227	22.67198	24.58406
48960	10.26462	7.78292	5.13643	11.43891	15.36130	30.26011	13.30293	8.03277	10.28354	30.77480	18.35551	23.00559	12.12289	9.33053	12.02085	12.07008	13.52701	20.57343
49120	10.52173	8.56583	7.80708	27.84109	13.57771	11.78461	12.92567	15.10685	11.02272	24.68013	23.11604	29.15393	11.43227	11.88638	12.33465	22.93230	21.03886	26.86665
49290	14.08683	13.90133	10.26060	32.53584	30.11615	29.18605	14.17973	10.21844	11.23195	23.78202	40.50350	27.98867	8.61231	12.36158	12.68224	23.54613	18.51458	28.29493	22.05	6.1	0.00	7.26	0.01281	0.01293	0.01698	0.00779	0.00581	0.00637	0.00471	0.01272	0.01697	0.00677	0.00686	0.00904	0.01497	0.01103	0.01204	0.00218	0.00618	0.00870
49450	7.88223	7.43638	9.93844	22.32299	20.25658	15.44749	10.52071	11.21435	7.37025	23.93703	22.13775	16.11885	10.64902	11.75267	10.12524	28.08676	26.07756	18.95146
49610	10.46792	10.82092	10.78906	27.70095	25.07826	13.73955	16.15395	10.47163	8.63047	17.29575	20.17716	15.97975	10.05254	10.50112	7.07966	17.09672	10.14605	14.09324
49780	6.88266	6.61518	7.38960	18.83067	13.09385	18.89500	11.04157	11.00445	10.68408	21.91552	25.60667	23.19642	11.88845	9.78555	10.85873	36.65230	25.65126	21.86990
49950	7.67888	7.79687	8.62966	25.80466	23.27429	18.07727	15.31705	13.03399	11.10285	9.63044	8.31894	18.65177	10.90887	11.03607	8.98732	31.09888	34.61837	31.10041
50110	10.10753	10.84955	13.25043	30.50546	44.63419	25.50657	18.25246	14.36452	12.50082	23.65127	33.44759	25.38409	16.10341	13.54790	9.08869	27.22071	22.27905	27.28585
50280	10.90729	10.07513	8.80520	26.64482	26.11325	23.89537	10.50481	9.30756	6.06502	16.28728	8.25769	14.65308	10.32048	7.56959	7.02363	13.10925	9.55105	10.58169
50440	10.44055	11.21890	11.04938	17.44386	22.63000	19.30761	12.42465	12.61306	12.84019	16.54691	8.26895	13.82225	13.17526	9.57503	10.60878	21.65644	17.44665	22.02625
50600	8.62967	7.85546	10.95132	28.93297	25.94307	22.39370	12.03375	10.82292	11.08610	22.89389	19.89342	37.68197	12.73421	7.55361	7.19239	40.65249	20.37018	16.24066
50770	10.42762	9.61661	12.46282	11.60556	16.50101	22.34025	12.44716	13.36531	5.94373	17.51807	16.55806	11.53035	8.61075	11.26797	9.92380	22.20772	18.05350	14.77285
50940	7.30644	7.99028	9.35568	5.93936	15.15884	8.40676	14.87710	10.90234	8.13224	12.70966	10.72244	11.12528	10.48962	10.02872	8.08865	16.02177	4.81372	4.27689	21.99	6.2	0.00	7.17	0.01281	0.01293	0.01698	0.00779	0.00581	0.00637	0.00471	0.01272	0.01697	0.00677	0.00687	0.00904	0.01497	0.01103	0.01203	0.00218	0.00619	0.00870
51100	7.66785	8.21282	6.79613	31.99517	16.94644	16.89842	7.58619	8.52336	9.11790	22.02157	19.89052	15.56220	10.42770	11.29361	12.88054	15.50231	17.22216	24.73721
51260	12.20108	11.21291	11.61472	24.47288	15.71983	18.26408	18.17161	14.82341	13.88155	21.25561	17.64200	16.65719	14.09535	10.22744	10.87625	25.04054	20.40417	15.32643
51430	11.59901	9.38174	10.47317	22.40630	25.73290	10.96538	19.51444	15.62851	13.07028	15.81257	11.34747	25.77532	9.98551	8.38996	11.42215	30.37480	25.52522	17.59202
51590	11.99494	11.22747	9.28768	21.97235	16.31955	11.61819	12.27310	12.08560	10.36470	20.02656	17.36753	18.65000	12.33037	9.84645	8.42722	41.41780	32.09343	30.99314
51760	11.66790	12.60220	7.09470	20.77866	27.48798	40.67650	15.21093	12.01300	11.61717	13.97787	13.71941	31.60167	13.76225	10.23620	9.68680	24.20757	23.02588	20.55887
51920	9.59223	9.43092	6.81852	8.23814	14.18110	6.26962	9.70398	11.41088	11.38226	9.04519	4.27282	3.08429	6.72146	10.56828	6.35577	10.76785	10.11086	10.82927
52090	6.76515	9.38406	7.75807	15.16100	7.80736	11.51373	11.36441	9.83135	5.82352	8.73130	12.06914	23.60248	9.10510	11.94465	12.36183	20.48863	6.90389	8.75263
52250	5.07523	9.86693	8.63963	13.41399	11.76474	9.33016	11.97081	11.15003	10.17891	9.77041	7.94455	10.94582	8.51398	6.91679	7.92820	6.25676	6.34914	10.04692
52420	9.50611	8.73839	8.34131	6.65504	9.67959	8.79632	10.93464	12.48734	15.90357	20.60729	21.18969	16.45374	13.69831	11.61779	13.85612	32.06266	12.02534	27.35089
52580	12.34456	11.59661	8.22204	35.92310	69.63206	56.80882	13.70203	14.37707	15.86897	18.06141	32.19450	38.16754	11.96188	12.99724	14.34469	15.45746	15.63963	16.72535	22.11	6.0	0.00	7.22	0.01281	0.01293	0.01698	0.00780	0.00581	0.00637	0.00471	0.01271	0.01697	0.00677	0.00687	0.00903	0.01497	0.01103	0.01203	0.00218	0.00619	0.00870
52750	12.10534	12.10081	5.73442	50.86314	35.04095	14.98387	15.55310	12.42809	8.45061	18.28591	23.06242	11.38684	9.90593	10.14291	10.31074	14.03892	16.25128	12.50588
52910	13.67501	10.03134	11.78841	19.20196	12.77660	12.85404	11.71760	12.09596	9.02795	7.38232	10.06764	9.34020	9.95609	8.84620	8.79966	10.73514	9.72176	7.62157
53080	8.04474	6.45617	7.80333	5.83413	6.49028	4.86817	12.01332	10.24139	7.42002	9.60905	9.09429	15.33863	8.94182	9.94480	8.42249	12.71544	13.36007	12.83650
53240	4.71398	6.32377	6.51903	10.35148	13.44649	9.76251	9.56941	8.14089	6.81161	10.08984	5.70220	4.76240	10.32020	9.30434	10.28922	7.56920	6.21796	6.92675
53410	9.06568	9.89192	9.89172	18.78556	7.66986	9.67980	11.69131	11.56264	6.66332	14.39204	13.77978	17.11426	6.14280	8.58991	11.61279	12.33976	25.89189	21.29504
53570	9.37662	9.23149	8.13420	20.70169	19.07696	18.68954	9.95153	11.07953	10.61921	14.44605	25.72729	24.77133	8.77472	11.42669	9.19132	8.23893	14.89416	14.38672
53740	11.85868	13.65531	15.61295	18.18885	26.76652	30.77029	13.56905	13.81705	11.64230	25.20655	21.90419	24.45503	8.45634	11.67605	8.08279	16.66356	16.80772	11.08075
53900	7.25145	5.28745	6.54209	6.39328	9.78823	14.66307	12.84052	10.04234	6.95711	8.63688	13.48851	17.99760	10.35747	8.28509	7.50110	24.75154	14.09505	15.48395
54070	10.56096	11.57830	11.13894	24.40480	20.29351	33.64311	13.89980	12.13408	13.24227	51.21296	51.48601	36.02995	12.81135	13.45807	12.58596	36.18359	19.90591	21.06381
54230	12.10223	9.70778	10.45948	34.60127	17.78535	28.21869	16.95832	15.14735	16.76458	12.97413	24.54816	14.45013	10.81280	11.84139	12.82046	51.53183	43.49103	20.04783	22.05	6.1	0.00	7.18	0.01281	0.01293	0.01698	0.00780	0.00581	0.00637	0.00471	0.01271	0.01697	0.00678	0.00687	0.00903	0.01497	0.01103	0.01203	0.00218	0.00618	0.00870
54400	11.70581	10.83173	11.11458	22.42111	19.69320	21.50258	14.73914	12.20574	10.53667	24.44120	20.64646	17.18879	13.65298	11.18024	11.68998	25.51832	19.43929	19.24733
54560	10.42087	9.76896	8.93769	25.25501	22.26657	17.76379	11.81491	11.01250	12.16865	11.56755	19.52820	34.27278	10.52233	6.49440	5.92611	17.76014	19.46095	16.95292
54730	6.88264	5.57758	8.58657	7.66863	9.91856	8.60839	12.43186	4.19764	4.10400	3.34132	4.83899	4.68114	7.57889	6.22126	6.65994	9.38793	10.86694	9.35843
54890	5.11090	11.64878	10.74855	10.58581	18.57073	22.74257	14.20282	11.55779	8.55272	21.07635	15.81812	23.90640	14.49824	14.23163	12.23068	33.17355	25.59168	29.27685
55050	8.70204	8.28657	6.97995	17.68180	13.53375	12.34715	7.69491	10.17864	10.75286	14.08221	22.57211	32.86291	8.12638	12.34108	12.84647	39.78805	26.04367	28.85511
55220	10.41260	6.30657	8.63992	21.96823	25.52647	21.22637	9.62462	10.79102	9.22689	17.69452	18.30953	17.42377	8.15373	5.63531	8.73205	16.34595	13.99687	21.56661
55380	7.41773	9.96993	9.35427	8.21587	6.48574	10.24179	12.20148	7.74769	7.70049	5.83547	6.35513	10.24710	6.41910	7.30950	8.32666	12.28658	10.65940	9.12322
55550	8.59559	11.16856	12.02402	9.97434	12.90756	11.56209	11.96151	7.70163	6.75433	14.39025	10.44992	12.24639	5.97071	7.03321	8.69831	13.25061	15.82193	12.59247
55710	9.05988	11.80777	11.03517	18.28163	20.79739	32.78320	17.11931	13.96014	13.27061	23.06240	28.88710	27.58013	11.97836	12.38968	9.85188	28.44231	24.65722	23.65830
55880	8.39869	9.36182	8.47400	20.98990	23.83859	13.30595	15.83410	14.41658	13.11132	11.56397	13.01948	19.84971	11.83450	11.06125	10.30665	17.96734	15.76365	14.70718	22.05	6.1	0.00	7.18	0.01281	0.01293	0.01698	0.00780	0.00581	0.00637	0.00471	0.01271	0.01697	0.00678	0.00687	0.00903	0.01497	0.01103	0.01203	0.00218	0.00618	0.00870
56040	9.55542	10.92315	7.70724	19.54640	12.90616	11.76798	8.21923	7.12734	7.47521	20.80524	16.89239	12.21112	6.19751	7.37425	4.10381	13.55666	11.43830	9.42925
56200	5.42391	5.62441	5.77043	7.39593	8.27713	9.34244	9.82611	8.63967	7.49725	8.86261	7.97460	18.07010	11.24492	10.68067	9.42926	16.35586	10.63685	19.00040
56370	10.15885	8.72446	8.02745	17.62359	21.36182	16.88219	14.00741	11.68077	12.30774	12.64359	17.67354	9.33871	10.53297	11.97297	8.82140	5.75278	8.04005	11.98721
56530	8.92745	9.81566	8.79360	12.27057	11.49968	11.76266	7.10603	10.52715	7.17845	4.13497	20.99948	26.15714	6.07169	8.69544	6.86498	26.71537	28.46035	27.20327
56700	11.34832	11.27994	9.27596	22.20272	16.82604	17.07344	14.79983	11.03654	10.73376	53.63832	47.79897	47.11661	11.37345	12.49081	11.54331	21.35493	37.99682	24.16848
56860	13.47078	12.78285	14.84740	35.65898	39.99112	21.60391	16.19544	11.77863	12.13658	13.45265	19.53223	12.17162	12.09406	10.67489	10.01947	39.74675	17.17082	21.77076
57020	9.96291	10.49687	12.84792	59.13133	42.08874	41.52755	17.43610	17.41733	13.63924	37.26534	16.10602	16.47876	11.89834	12.83223	14.89098	35.14495	39.63913	43.86533
57190	10.59125	13.97289	11.61690	42.10995	35.67119	32.59609	16.00670	15.82919	15.37825	26.71783	40.90427	25.59272	13.13521	19.09094	15.85800	59.35584	49.17474	53.66213
57350	14.65606	11.05572	8.41764	16.06705	12.37294	19.83800	10.68032	9.77587	10.01533	20.16871	18.46895	18.73017	7.89796	6.84529	7.13199	20.06222	13.45256	16.41357
57520	8.35939	7.26165	7.92114	13.40068	17.97873	23.31862	15.09974	12.84327	11.69047	7.97840	12.26412	25.32299	13.20583	11.53159	13.82829	17.43265	12.09768	28.95316	22.11	6.1	0.00	7.31	0.01281	0.01293	0.01698	0.00779	0.00581	0.00636	0.00471	0.01271	0.01697	0.00678	0.00687	0.00904	0.01497	0.01103	0.01203	0.00218	0.00618	0.00870
57680	10.36694	9.43153	9.10122	22.19129	15.07794	12.40292	11.96308	8.04654	10.67955	16.74329	8.90787	13.82505	7.60523	8.86787	9.30311	15.87832	18.18299	29.95900
57850	8.79668	8.00770	10.24854	20.90077	18.70674	22.63224	15.19007	11.71070	11.46414	12.12833	10.05194	7.90477	9.48262	7.94246	5.02898	10.75462	15.39287	13.13722
58010	5.51563	6.21115	7.76302	6.75350	14.13200	13.51729	8.44329	7.15442	6.44879	7.20904	6.42460	9.17907	7.19279	5.75565	6.88555	20.82797	15.38200	9.80648
58180	7.69953	6.88462	6.24821	7.05746	16.11644	27.59447	10.75783	10.03747	10.26067	21.72624	21.17139	27.29128	12.95381	11.40363	12.41504	17.87608	19.39142	13.81104
58340	9.07043	8.23936	8.15060	16.10045	10.91945	8.95931	10.30126	6.60006	9.97065	4.35651	10.82038	4.80466	10.14339	9.99252	7.78324	5.97222	16.64036	10.66427
58510	8.77587	11.74666	9.41718	14.73208	9.37152	11.66966	7.54846	11.16084	11.10177	19.38636	15.93089	11.31678	10.73630	9.92183	11.86936	19.03336	16.90801	29.46070
58670	17.29530	12.31071	14.18217	47.24259	43.59970	27.59428	16.73920	10.91890	15.14732	35.66973	34.85357	48.98068	17.28658	14.36892	13.13613	42.39220	26.23460	34.15458
58830	13.28335	10.77197	11.05903	26.55302	16.52692	15.88182	16.70027	14.94648	14.58745	35.56288	33.06976	21.91845	13.40871	13.95151	14.74716	30.02073	16.09960	17.52166
59000	11.80118	10.64376	13.19250	26.33445	12.87118	9.30191	14.66675	14.27601	11.30761	8.95120	14.97964	30.72670	12.14024	11.33374	11.65833	21.66467	17.35858	12.03013
59160	12.66755	12.89779	11.79961	8.75275	15.97066	14.22877	12.86141	10.74264	11.45821	12.38996	15.44026	14.52539	10.98052	11.64724	9.77372	17.84528	6.78991	2.78957	22.05	6.1	0.00	7.22	0.01281	0.01293	0.01698	0.00780	0.00581	0.00637	0.00471	0.01271	0.01696	0.00678	0.00687	0.00904	0.01497	0.01103	0.01203	0.00218	0.00618	0.00870
59330	10.02067	9.14583	8.09355	5.04495	5.22119	3.83147	12.16651	12.18119	9.08679	2.41522	4.28868	7.67028	3.83274	7.67630	5.57824	11.59961	7.32514	21.92405
59490	8.04440	11.13099	9.49519	6.09504	8.98135	18.25535	13.28573	12.25813	11.38566	9.90579	8.99941	25.88430	13.74012	7.66790	11.69690	15.46462	14.00671	22.21015
59660	11.36856	10.28755	10.45745	31.47291	22.80339	27.31249	12.81552	8.35782	13.04491	27.85486	13.99340	21.18800	13.71172	11.84948	12.48338	23.74708	11.28648	12.94533
59820	11.29209	11.82098	9.47454	15.38432	21.46148	27.27540	12.16736	12.06587	15.09128	24.38915	13.90169	28.57836	9.53941	9.38282	10.96139	25.59623	23.64129	40.70912
59990	8.96310	8.60708	8.73255	17.67880	10.49973	9.85142	12.33416	9.14505	9.38168	20.14305	23.87655	22.14771	11.84284	11.31841	8.57394	21.86809	14.43952	11.46501
60150	6.85534	8.28079	9.98669	7.79550	11.91109	7.42646	8.56130	10.29245	9.75787	13.00177	13.63868	8.45547	8.85745	7.36664	8.31299	7.03776	11.65874	10.94244
60320	6.22891	7.81181	6.56573	6.70750	7.33535	15.18318	11.71355	15.04899	8.49162	26.61804	19.53446	39.08815	11.81513	15.23936	11.90042	29.17429	43.31882	33.27932
60480	15.47880	14.51754	14.67702	50.41186	25.17021	18.23594	18.56261	13.06579	11.50470	30.66895	28.39960	17.78014	12.59750	15.78990	10.86815	16.25112	21.02145	12.95630
60650	9.32005	10.98524	12.05500	13.19551	11.46327	12.90159	13.77047	13.74622	8.94474	12.87201	14.81936	8.15328	8.43508	9.10266	11.12598	5.87496	10.80799	15.82782
60810	10.51265	8.30078	10.14867	7.80544	13.01608	9.62740	11.26274	11.75949	10.07910	13.07087	7.92822	6.48577	8.79718	11.16161	9.61247	6.27083	7.59296	6.86270	22.11	6.0	0.00	7.16	0.01281	0.01293	0.01698	0.00780	0.00581	0.00637	0.00471	0.01271	0.01697	0.00678	0.00687	0.00904	0.01497	0.01103	0.01203	0.00218	0.00618	0.00870
60970	11.58116	10.93566	9.18021	18.26444	9.20253	6.57783	16.63650	12.06923	10.99452	7.59436	18.46023	13.75612	10.10540	10.92175	12.20049	15.32881	13.26687	23.21849
61140	10.96574	9.53592	11.03001	18.99446	35.76801	17.24503	8.24654	9.11350	9.33248	18.85223	19.72749	18.82757	7.63290	8.29865	12.86837	19.49404	20.37171	18.98455
61300	12.19731	11.64487	10.06395	28.38862	22.76808	26.75855	13.37968	12.11838	12.16250	31.44123	21.97981	17.56538	13.81506	12.61816	9.64770	36.96512	21.80967	38.61007
61470	6.97793	6.33746	8.08588	21.93071	25.19297	26.54772	9.04745	12.54186	10.82141	27.33357	24.41469	23.79943	16.29116	15.76784	14.26208	38.12343	20.48532	22.29279
61630	6.39854	6.93488	12.12731	13.10299	16.68105	11.09012	12.95940	17.07443	12.60533	7.87222	7.48314	9.03384	13.17835	13.59311	11.68743	11.99027	9.41523	9.77845
61790	8.92724	10.92963	8.18579	12.14988	26.52791	12.70544	12.01996	7.65569	13.16390	7.85668	10.03177	13.41367	12.11056	8.89311	14.38438	22.47580	12.26815	23.15387
61960	10.91757	13.42526	12.74942	33.20149	31.56121	23.37360	13.45122	12.00813	11.15529	20.61012	16.73640	26.75863	14.44484	9.95684	11.40272	39.80195	34.07679	21.18870
62120	12.13914	11.54281	12.62876	19.18599	31.54495	14.63505	15.46952	12.72366	13.14991	10.89769	24.31016	19.76549	9.45562	9.75801	6.98450	10.16114	12.53104	15.01884
62280	10.87006	7.83911	8.48274	13.44540	14.85774	11.61000	13.21155	11.85867	11.60632	12.84076	7.83886	7.13273	13.64380	10.23694	10.49511	11.20391	8.45553	11.12959
62450	8.18155	8.42984	6.65296	10.06945	9.96303	14.86310	11.69711	14.02746	14.15586	10.56590	13.41090	14.08546	14.64041	13.59027	16.57851	14.88702	28.83864	9.02488	22.18	6.1	0.00	7.34	0.01281	0.01293	0.01698	0.00780	0.00581	0.00636	0.00471	0.01271	0.01696	0.00678	0.00687	0.00904	0.01497	0.01103	0.01203	0.00218	0.00618	0.00870
62610	10.66070	12.29051	12.45460	35.02449	25.96052	18.88951	12.66669	14.19284	11.37647	33.08482	18.09171	26.42419	12.89422	11.87060	8.62467	25.07876	16.28712	13.30904
62780	8.37196	8.44425	5.83148	15.79897	7.82584	9.73158	10.56444	10.15534	10.71741	5.04398	8.35539	10.13449	9.66217	6.85504	6.09668	7.32019	16.23662	7.74791
62940	11.03271	7.98269	8.93274	5.85572	10.28496	10.92179	12.48054	14.02327	14.42792	22.75048	16.49476	14.73944	9.60336	9.24986	7.70674	29.92217	27.18224	22.58776
63110	9.95204	7.29827	8.33806	13.92129	19.03334	28.49400	14.48822	17.35955	13.65713	28.18888	25.75688	18.84802	11.57755	10.66073	9.71700	19.40451	35.83947	21.32816
63270	9.48170	7.94841	8.03340	18.80764	15.26175	18.38649	13.19783	12.91846	14.18640	20.35765	38.73531	16.65558	13.77787	9.82801	10.90448	34.79668	44.94579	24.04563
63440	12.96255	14.27915	12.01500	30.32995	30.61824	23.70625	16.63060	12.89489	8.03956	13.75230	14.20782	20.94395	8.75449	9.01860	8.67448	19.11269	20.19072	18.72527
63600	7.27798	7.12914	6.86297	13.76835	16.62612	13.33512	12.96257	6.82081	4.59935	6.15286	4.28570	9.71875	9.45105	10.27683	8.42764	12.17706	14.26215	20.10907
63770	7.68889	4.75103	7.36397	23.76139	18.75496	18.76066	6.07370	9.43564	9.63154	16.21420	11.75990	11.79389	8.23910	7.25452	10.96147	22.74088	26.33813	33.25651
63930	10.60235	13.03881	10.22269	19.76828	19.09396	11.51843	12.73850	11.42920	9.57569	20.88825	17.48300	15.83863	8.48022	8.89256	7.93512	12.91951	12.16613	14.25037
64100	8.76632	8.62184	9.78019	12.44152	16.05953	9.69866	15.33493	12.11791	10.38902	12.46047	17.78229	14.52078	10.14190	6.23021	7.29809	17.27446	25.67512	20.26988	22.11	6.2	0.00	7.16	0.01281	0.01293	0.01698	0.00780	0.00581	0.00636	0.00471	0.01271	0.01696	0.00678	0.00687	0.00903	0.01497	0.01103	0.01203	0.00218	0.00618	0.00870
64260	10.75867	9.82753	10.77444	27.81588	16.42997	15.14355	12.36394	10.50677	11.08981	16.39588	17.24160	22.19469	9.63734	8.99116	8.28161	22.20046	25.87090	13.21473
64420	8.16871	9.66604	9.10299	33.70663	25.98248	15.61071	7.80715	8.19271	8.68809	9.51873	18.80384	17.55577	10.83687	8.23129	10.61930	22.43856	13.65712	18.50012
64590	8.81712	8.24771	9.29249	22.50248	19.77374	21.84782	10.59399	10.45737	13.68531	20.21071	11.62554	14.59399	11.76369	11.86880	8.57468	30.18806	26.37317	11.28864
64750	9.44344	9.11010	9.67052	14.68226	17.36302	17.53114	10.91169	9.86537	11.93386	7.90755	10.10265	5.47263	8.37946	11.53763	10.14636	8.93607	8.68977	13.53794
64920	11.93754	9.56593	11.56671	4.59002	8.41074	9.18246	13.15667	14.92133	11.29446	24.00051	12.52723	13.50466	8.95027	9.80034	10.81122	39.96535	12.40982	14.59307
65080	7.48465	11.80968	10.42694	16.27044	12.66829	19.80818	13.54102	14.13018	8.84868	28.44815	44.00818	28.71441	13.09706	8.61839	7.08829	32.69859	20.76288	31.80605
65240	10.23730	6.69354	10.61674	18.46159	20.62469	16.87717	15.65795	10.75522	12.02996	32.73774	19.23450	17.89046	11.73161	9.83484	11.45425	26.87046	21.25520	20.27423
65410	12.32719	11.26484	12.23795	27.88837	35.39446	21.63799	11.95816	8.27127	10.85526	14.35561	18.28635	9.01574	10.68654	12.80332	10.24980	28.13378	10.20943	21.87566
65570	13.19994	8.78263	8.80415	23.93521	27.02249	27.47514	13.86835	11.68413	9.88828	22.05720	11.65581	15.49431	7.60823	9.64697	10.03738	16.88990	12.44739	24.65730
65740	6.96949	11.07168	10.85071	22.53720	27.86516	27.21337	11.60532	14.12058	11.69018	62.27784	21.66830	25.95057	11.76513	10.02980	13.45374	14.24993	20.48762	13.77354	22.18	6.0	0.00	7.16	0.01281	0.01293	0.01698	0.00779	0.00581	0.00636	0.00471	0.01271	0.01696	0.00677	0.00687	0.00903	0.01497	0.01103	0.01203	0.00218	0.00618	0.00870
65900	10.26117	9.87124	7.28699	25.07722	13.39943	12.11484	11.52450	9.47728	8.00708	11.65105	6.70959	10.66089	6.26405	10.24124	10.90002	6.33223	4.30626	3.51255
66070	8.07485	9.73935	9.61336	5.62277	8.74851	12.49164	13.72167	11.32666	11.36088	14.57070	12.99060	17.23769	11.02585	9.93359	12.64644	27.27529	31.85084	25.54842
66230	10.71791	11.68668	13.99933	26.43900	24.80001	28.95413	16.89051	15.82082	10.77561	25.07993	26.85444	23.76287	13.29634	11.18160	11.96871	23.24940	16.63784	19.26169
66390	13.61054	12.61984	12.56366	19.07505	17.34976	21.84847	13.47978	15.06407	10.88321	10.38665	14.11829	8.87380	11.97432	8.86649	10.34869	18.65742	15.82425	19.91077
66560	9.38956	9.77056	6.55564	11.20835	10.78098	10.36621	15.06142	12.34774	10.00952	9.99216	14.27773	15.93307	11.90885	10.02925	13.66335	11.09555	13.43984	15.15322
66720	14.51962	11.58466	11.27139	21.35184	38.02474	33.93638	14.51790	13.05758	13.32935	43.70892	18.98863	30.83907	12.06739	10.97777	11.24618	35.10863	17.51830	11.78112
66890	10.99322	11.37877	7.50429	23.34590	15.01275	12.77409	13.02987	10.60085	7.95713	11.29298	10.37457	9.98502	3.10471	3.92747	6.52183	5.89025	6.54639	8.70742
67050	8.33039	9.22956	11.05769	10.44944	8.71471	6.90544	14.24693	12.89691	9.87385	12.50800	7.82781	7.18204	8.62702	8.57285	9.74302	19.60738	19.89760	28.36312
67220	13.06384	11.50427	10.28483	20.25717	33.65028	37.39084	12.76143	11.95926	12.75767	45.03537	38.23026	24.08966	9.69568	7.01298	6.45496	31.04607	28.18676	27.07536
67380	10.53079	9.97303	9.37869	12.04951	16.99209	12.88750	14.61631	10.98290	10.44539	13.62688	17.57939	17.49198	9.57934	10.39143	9.44258	10.83386	13.66724	15.83112	22.11	6.1	0.00	7.18	0.01281	0.01293	0.01697	0.00779	0.00581	0.00636	0.00470	0.01271	0.01696	0.00678	0.00687	0.00903	0.01497	0.01103	0.01203	0.00218	0.00618	0.00870
67540	7.01229	8.31215	10.62887	12.06697	14.84543	6.61554	11.79198	9.74367	10.43636	5.37311	7.02157	6.32628	6.12487	4.72739	8.45573	7.49562	4.76073	12.95484
67710	9.26717	9.15052	7.85017	8.46816	8.23519	3.96146	9.51340	8.50964	8.52870	4.90987	2.17601	5.54612	7.04857	4.85248	6.67184	7.32145	7.25059	3.47651
67870	7.53309	8.75980	8.45976	5.95364	10.82743	10.98415	13.59664	11.52889	9.91175	16.61123	19.39562	11.88318	9.93924	9.09676	7.97101	12.21209	17.13113	16.55996
68040	10.61628	9.63160	7.80504	10.99976	12.94388	15.21943	13.84534	11.76375	9.55033	15.26615	14.27978	14.08904	11.07431	11.93184	14.60212	8.47179	18.91414	24.93554
68200	10.43103	10.03995	9.50806	27.15949	21.21119	17.63482	13.14400	9.94949	10.27336	32.12752	23.61282	20.35337	11.59210	10.85441	12.12617	18.91907	16.76587	26.04928
68360	11.87140	12.80814	10.01749	18.94535	13.65987	27.22542	13.35606	15.27074	15.34531	30.27741	22.44840	28.07648	11.63888	11.88790	9.87672	17.26503	19.85194	14.16920
68530	9.35689	9.68383	5.39520	12.16411	16.55945	10.02434	14.37409	9.01951	6.68669	11.04182	12.28370	15.38186	9.58784	7.88278	8.43838	9.30987	15.52699	15.11906
68690	7.95163	9.25370	8.44987	23.85701	15.45376	24.08815	12.83188	14.77942	12.86538	9.66472	16.83760	30.30061	13.72332	10.78858	7.24965	22.63323	25.04498	25.76906
68860	10.11790	8.98922	11.25392	19.38020	15.86507	17.85990	11.45757	12.67840	9.15663	7.43902	9.03082	8.44816	10.28439	6.80531	8.39305	18.89707	11.67352	12.87572
69020	9.59966	9.02941	8.19793	17.61512	32.00042	26.10058	10.05845	11.99153	9.67859	43.77000	14.25015	35.38672	11.05287	14.59084	13.64518	15.33502	35.82847	41.53956	22.18	6.1	0.00	7.17	0.01281	0.01293	0.01697	0.00780	0.00581	0.00637	0.00470	0.01271	0.01696	0.00678	0.00687	0.00903	0.01497	0.01103	0.01203	0.00218	0.00618	0.00870
69190	12.79724	12.38052	9.90521	22.19172	21.34480	24.73815	11.33541	10.32345	11.48009	19.21479	12.58460	16.07813	11.30461	10.51174	7.59580	14.47235	21.99578	18.56237
69350	10.77380	12.18714	11.74890	12.23493	13.84668	7.83517	11.27753	12.53387	8.46824	18.21300	12.24508	10.80873	3.97726	4.75716	4.01418	11.40213	10.92868	4.56881
69520	7.70951	8.02051	7.44173	3.69279	3.16652	9.06059	11.00581	9.13177	9.27375	7.94680	6.28585	6.95448	8.39288	9.99228	6.60522	5.94510	5.00062	8.67255
69680	9.98413	8.07690	7.63188	14.04010	8.22223	12.09860	11.93944	8.90597	9.01698	11.14843	24.21472	25.92700	6.61901	8.75894	7.70759	22.49983	27.46552	20.32108
69850	7.91660	6.65580	6.42880	7.14293	6.19540	12.93133	11.00814	8.71665	10.66652	9.67797	10.78954	9.05932	11.22728	6.22442	6.94528	20.43457	25.72400	27.63795
70010	8.76387	5.73268	8.88831	12.73776	12.26415	7.51744	12.64861	10.23769	11.16080	6.89929	16.00344	10.29545	9.58772	14.79936	9.63821	11.83149	6.55502	12.24979
70180	13.13570	12.26373	11.34864	18.02624	8.78934	14.75022	13.07765	10.03475	9.88926	8.96178	7.29557	11.97388	10.96495	9.88276	6.77341	16.21856	7.75531	16.59825
70340	5.50842	6.69979	8.04928	10.94609	9.11198	10.18442	9.80721	12.53365	10.87354	13.12494	16.95172	14.62542	8.49351	11.65774	12.54095	17.54667	16.33351	19.55669
70510	10.78845	9.09812	12.22601	14.99808	23.65166	8.19364	13.80325	11.76391	8.55938	22.99177	19.57760	12.31096	9.82657	5.94766	10.71461	18.08823	12.44625	15.39839
70670	8.81591	9.31946	10.76692	20.43440	37.85312	31.09565	13.86175	8.42434	10.88651	29.28656	15.29332	7.51715	10.32071	9.42674	11.34401	17.37069	27.51313	15.24515	22.11	6.0	0.00	7.57	0.01281	0.01293	0.01697	0.00779	0.00581	0.00637	0.00470	0.01271	0.01696	0.00678	0.00687	0.00903	0.01497	0.01103	0.01203	0.00218	0.00618	0.00870
70830	8.28479	7.30783	9.12577	19.36679	14.59460	12.98696	13.56874	9.87514	8.39360	12.74782	11.19912	10.13480	9.00178	5.78135	5.03082	11.19285	9.42489	8.60213
71000	5.44017	6.19695	8.21091	7.07104	8.53924	12.01298	11.68436	11.21125	11.39900	11.79091	6.93440	13.15687	9.03887	13.32422	9.58545	17.91175	6.51838	5.65252
71160	9.77192	9.26883	7.36672	7.30167	5.13631	7.31883	9.47605	7.40688	6.70293	4.16639	10.04242	19.63033	8.57283	8.48087	10.06708	9.45613	10.68754	10.75988
71330	7.32863	10.34601	7.75752	21.29284	19.61029	27.67581	10.93217	11.36164	8.53101	27.67626	30.05168	26.19680	10.92902	5.98717	10.82862	21.73495	21.78839	12.40960
71490	8.93840	9.74546	7.68780	7.70309	21.52337	13.10976	11.63777	9.57674	8.71835	6.25431	5.35697	6.09999	6.26814	6.44448	8.18198	9.41637	4.22089	7.07562
71650	7.93342	5.69018	5.41413	15.13234	11.75491	16.19233	10.21933	11.80290	8.98903	12.03838	24.62147	21.30849	8.52316	8.64491	12.51861	30.84979	26.06544	22.84612
71820	11.92106	8.12870	10.03904	20.75513	27.02322	37.42547	14.62874	15.79101	10.50052	24.59823	19.04821	23.72502	11.90494	12.47800	12.65105	21.96372	27.43382	11.66293
71980	9.12037	9.90181	9.09246	21.43539	30.21556	36.30957	12.91385	14.43259	11.77457	19.63842	29.21621	25.42278	9.78951	13.37269	9.98532	57.33048	44.56315	39.14044
72150	11.15516	9.68465	9.46470	22.44037	30.77621	29.22087	7.92275	10.64876	10.49428	20.32531	15.78141	8.96357	11.87140	9.25647	6.57585	18.50344	17.29242	6.83859
72310	9.37968	11.62786	11.54963	18.79107	16.37243	9.76140	13.38137	14.07709	13.58360	20.66061	23.80008	13.54403	15.71359	14.75267	14.89764	26.00012	16.50874	15.17079	22.18	6.1	0.00	7.21	0.01281	0.01293	0.01697	0.00779	0.00581	0.00636	0.00470	0.01271	0.01696	0.00677	0.00687	0.00903	0.01497	0.01103	0.01203	0.00218	0.00618	0.00870
72480	12.26185	14.32718	13.18301	18.71925	27.64671	24.22054	14.79135	15.95542	13.46204	24.29256	22.25255	31.95632	11.73231	8.42178	6.21167	17.22837	16.45717	26.72002
72640	7.95617	12.20822	9.30984	15.66766	12.35071	20.25206	12.69045	9.85721	12.67313	24.05723	21.69335	38.70510	11.48336	10.70835	9.29689	38.37573	27.51861	32.98453
72810	10.88374	14.23030	8.65326	25.15147	21.02084	24.20535	14.20409	12.57013	12.10377	30.75275	33.21783	32.50461	11.61610	15.99095	14.64507	24.46055	18.42667	14.59754
72970	10.14504	11.84190	9.46933	16.08727	14.70995	23.24498	11.20388	10.35538	11.70641	21.18530	17.80553	18.90243	7.74626	9.76758	8.86920	15.46077	10.58621	19.36783
73140	9.01801	9.43083	9.05583	23.95771	28.20225	16.43604	12.54377	12.54877	8.38038	29.22085	17.34265	25.74047	10.12796	11.50950	9.67326	21.97716	17.91515	17.76243
73300	8.23023	6.99780	4.86950	16.10294	20.30747	6.93705	11.89061	11.55979	10.53313	13.57470	4.45397	3.15496	4.87650	4.92718	9.47013	4.66648	4.92698	7.30442
73470	7.27199	5.93267	6.12839	7.73248	5.33746	4.34969	12.67862	11.95391	9.15531	3.25244	2.39781	9.33677	8.79305	8.05479	5.77062	15.26849	6.16703	23.69424
73630	6.51354	7.07175	9.28243	10.66974	15.73217	17.43264	13.38928	13.22406	11.96705	16.96371	16.80832	22.37941	7.99602	14.09726	13.49269	39.03590	26.72415	18.14319
73790	13.19721	8.59597	11.68560	34.78175	16.91328	23.86997	15.36864	16.89555	17.81111	26.71988	28.17789	20.14462	14.27196	13.65047	11.30049	45.28990	30.93724	27.60316
73960	10.70500	14.31110	8.21129	26.39178	52.03683	33.48074	13.68079	10.93119	16.04239	37.15379	35.06360	41.54068	15.94021	14.45155	10.99947	39.21015	31.36509	24.43381	22.18	6.1	0.00	7.18	0.01281	0.01293	0.01697	0.00779	0.00581	0.00636	0.00470	0.01271	0.01696	0.00677	0.00687	0.00903	0.01496	0.01103	0.01203	0.00218	0.00618	0.00870
74120	10.70907	11.48182	10.55092	36.15019	37.65981	22.59085	16.08933	12.21382	12.67829	39.77267	23.68247	24.59914	11.61366	13.17487	12.89340	27.44273	22.58091	21.89277
74290	11.12238	9.62158	10.28399	33.19743	24.08359	13.65082	13.03045	12.70467	11.30646	13.41310	24.23305	19.25448	6.53982	7.82010	7.30166	16.56456	32.50169	22.44296
74450	8.73820	9.30487	9.30181	18.81527	18.28109	15.47219	14.09839	13.58654	10.46776	24.89399	25.20900	15.17152	13.09628	12.95755	10.53260	37.54569	42.88383	29.01251
74610	12.45997	9.48114	10.94628	18.17186	16.96037	15.21439	13.36888	11.80985	11.36646	21.82064	20.53812	28.39831	7.36507	6.08812	10.94318	34.09550	22.45701	18.36406
74780	5.26922	5.91622	8.20061	24.14801	11.86171	27.97912	9.51789	12.11368	6.46892	19.52186	22.15618	29.54178	8.24780	6.94461	9.22943	27.08532	32.10390	14.38475
74940	8.18566	9.39416	8.64437	14.11617	19.83198	16.99728	8.98564	8.29600	7.06765	11.81521	12.06413	8.73125	8.81290	6.63202	9.78459	10.86795	5.47876	8.69181
75110	10.22535	9.00729	9.68901	19.07965	18.07844	25.35770	11.08397	14.60033	12.39954	32.74274	28.00371	22.21718	11.61498	12.45324	14.84306	39.73379	21.00026	35.24385
75270	9.38867	10.35103	13.65436	20.69030	32.54038	14.76354	16.20524	16.79029	15.47959	24.82595	14.43870	16.54719	11.40715	15.15128	13.34520	45.24894	22.15791	32.41030
75430	14.83114	14.01974	13.55053	54.74552	61.32912	34.72677	16.12070	12.90367	12.89024	54.24505	34.88462	26.93610	10.36066	9.14783	11.26093	26.31345	13.82883	11.36962
75600	8.95249	8.14966	9.75775	9.15113	15.74337	10.21168	11.22540	10.30887	11.95519	13.38660	15.35536	9.14414	7.61348	9.37822	8.59112	21.90100	6.01831	12.18064	22.18	6.1	0.00	7.27	0.01281	0.01293	0.01697	0.00779	0.00581	0.00636	0.00470	0.01271	0.01696	0.00677	0.00687	0.00903	0.01496	0.01103	0.01203	0.00218	0.00618	0.00870
75760	8.60656	7.45560	4.34977	5.48496	9.81901	9.52107	9.24148	4.21220	9.84939	6.00684	7.52781	6.11738	5.61494	5.59934	6.12459	8.48090	13.84421	9.80868
75930	7.68407	4.80588	7.99153	13.19015	10.86447	21.24209	9.96646	11.66873	9.12940	11.21812	9.99750	5.63322	7.96869	10.26374	8.02272	9.95368	12.93056	10.96443
76090	7.37673	8.95372	7.39113	24.89415	16.14889	24.35429	10.99808	10.48770	9.23178	17.54147	30.57828	26.16833	9.48199	12.73512	12.26505	30.91625	24.20501	21.70256
76260	10.13079	11.59084	7.75010	40.71267	35.52857	40.52159	13.67186	11.17984	12.61512	29.60183	40.95014	30.93264	15.22412	10.06578	8.71756	18.99059	29.57815	17.97796
76420	6.65855	7.18812	7.41752	11.30827	14.84605	16.54830	10.57351	11.08348	6.94911	8.99732	12.28702	7.11603	10.37248	7.37800	9.37236	10.23553	29.24203	23.19081
76580	8.60827	8.49167	8.65089	16.47206	12.72567	16.90044	8.31404	10.26385	7.63510	27.70373	19.21019	22.99738	10.70153	8.34452	6.72043	11.56785	22.50203	21.23682
76750	9.82475	11.56833	10.61062	14.22403	15.73244	11.35194	16.26229	12.63661	9.59750	14.59885	15.84625	14.80811	8.98074	8.53088	10.04405	10.52619	8.60825	11.49209
76910	8.35570	8.66809	8.31381	11.83710	10.29474	3.52156	9.67757	9.39358	7.56992	5.32052	8.41881	7.63703	7.47633	5.41660	4.46599	6.89152	9.21465	4.63842
77080	5.38067	5.61262	10.14814	3.79891	12.66116	10.62470	11.31352	11.60499	10.30653	10.17806	19.73480	20.02421	10.39264	9.69497	11.89194	32.89746	35.25157	26.30340
77240	9.72262	10.25010	7.12531	26.72041	23.11225	19.80240	7.41126	9.23174	10.03797	28.86567	17.78848	27.82677	10.46155	11.16621	10.90771	50.84549	64.52246	35.89487	22.18	6.0	0.00	7.15	0.01281	0.01293	0.01697	0.00779	0.00581	0.00636	0.00470	0.01271	0.01696	0.00677	0.00686	0.00903	0.01496	0.01103	0.01203	0.00218	0.00618	0.00870
77410	10.91901	13.24106	11.06596	32.42650	20.69244	30.52663	12.98910	12.60956	12.79106	18.87978	23.44361	19.46007	10.90436	11.30896	10.58360	29.21156	16.63549	13.51302
77570	4.87814	7.14503	7.60141	12.48205	7.93787	15.36765	11.75384	13.30355	10.11440	14.90295	21.27811	25.51951	9.50412	12.37653	11.42179	12.76588	12.91727	8.60113
77740	8.70124	8.31149	8.20099	14.09702	25.75635	22.46941	16.68639	12.51327	10.93041	11.15725	8.91735	15.30792	8.67843	8.39210	8.01847	18.42286	14.73325	13.05385
77900	8.65709	6.79861	5.09631	6.76468	8.80105	8.25602	9.55275	9.25938	9.37293	9.00243	8.51064	10.70573	8.44001	6.50296	9.91164	14.15703	13.26321	6.82779
78070	11.11729	10.33081	9.27193	11.95542	11.84793	12.97398	7.20737	10.97478	12.61220	8.88172	9.86735	7.57041	9.34293	12.95982	10.67452	10.58369	10.55837	10.83844
78230	8.49791	5.47169	8.18344	6.80873	12.43288	6.90624	13.02558	14.49594	10.32148	8.13864	12.98309	14.42478	9.54593	12.20941	11.69726	26.01602	23.40079	33.31320
78390	9.95323	9.85351	11.26906	15.79368	22.96741	20.52319	15.49423	15.43771	17.34340	35.84169	29.07125	21.81887	11.11078	11.61844	14.34879	33.28666	43.56491	37.73929
78560	11.07198	12.13005	10.92866	20.12592	31.27248	20.05235	13.25915	12.86559	15.40095	23.78788	23.42785	9.89325	11.21619	12.12867	8.05223	15.63250	11.33852	20.95332
78720	10.55958	10.77968	8.27055	13.86146	12.01572	15.40239	14.94093	13.21627	8.33832	21.18904	13.18145	10.03805	12.02599	10.31667	6.27457	5.34936	4.19767	6.89493
78890	4.55771	7.75421	8.46196	13.70498	15.26086	15.26719	14.11557	11.79945	7.67475	18.59965	20.53971	41.14823	17.67400	15.80260	17.20668	65.29867	68.29200	76.74909	22.18	6.1	0.00	7.23	0.01281	0.01293	0.01697	0.00779	0.00581	0.00636	0.00470	0.01271	0.01696	0.00677	0.00687	0.00904	0.01496	0.01103	0.01203	0.00218	0.00618	0.00870
79050	16.48893	11.97745	11.91087	51.58556	57.72517	24.47396	16.94228	17.06762	14.75907	25.48209	22.28969	20.40238	11.88706	7.91912	9.36772	15.07401	26.49881	20.78480
79220	7.56542	7.97214	8.42888	17.80935	13.85671	5.32467	10.30870	9.12784	5.74606	8.41477	8.19950	3.24276	5.55349	4.91728	7.65412	18.51651	18.86402	10.69056
79380	7.24060	5.40338	9.06876	17.53486	10.44848	8.45701	12.23660	12.01408	11.80606	12.12167	13.49568	21.21916	8.30248	8.08279	9.12732	17.05757	22.09897	14.02767
79540	8.61212	6.79478	4.77986	11.91733	20.95338	16.61294	8.34550	8.22031	10.42092	8.50633	12.74348	12.89754	4.74629	6.55698	8.65095	15.98508	18.37927	15.88875
79710	8.43767	9.04471	6.07697	18.17911	12.34940	12.75977	12.74528	11.40232	16.11835	10.23267	7.46012	6.57935	10.65826	9.66544	7.24408	12.58955	13.65190	16.16660
79870	8.10434	10.74007	9.17895	7.36823	14.08425	11.49916	13.98314	11.10177	9.83991	8.50301	17.85867	13.99291	9.40595	10.40609	12.30667	22.95168	16.96616	8.01927
80040	13.19980	9.20713	10.78331	31.46968	22.30688	20.10570	10.70639	10.36445	11.60998	19.84700	18.65146	12.79529	12.03265	9.22931	7.72213	9.75857	15.25638	19.13482
80200	10.77967	10.68377	8.45863	15.63044	18.88632	12.20672	9.63654	10.31498	7.80361	14.13817	7.96213	7.57019	7.31562	9.99689	9.82238	17.49198	20.19758	16.45818
80370	10.17225	10.05790	10.11328	24.16762	19.19602	20.95946	9.47955	7.38216	9.34143	12.14861	12.51008	8.52082	3.73233	3.55611	5.09835	5.27642	3.25800	5.42052
80530	3.05168	3.95475	6.76202	4.96664	5.35121	8.02338	7.72223	8.56205	8.68747	8.52466	9.38888	7.75255	6.31727	4.33013	9.70433	7.31317	8.49700	5.69313	22.24	6.1	0.00	7.23	0.01281	0.01293	0.01697	0.00779	0.00581	0.00636	0.00470	0.01271	0.01696	0.00677	0.00687	0.00904	0.01496	0.01102	0.01203	0.00218	0.00618	0.00869
80700	9.25947	6.53823	4.32099	11.19259	9.00534	11.12227	11.51649	9.54018	11.91938	4.44467	6.06103	8.33229	7.52792	11.65542	12.64229	16.18322	7.63569	17.29893
80860	12.25338	10.23233	11.08999	10.83962	28.66693	22.86112	12.95649	12.40942	11.52847	32.81601	17.97563	13.94794	11.46790	14.97274	7.52271	22.72983	25.50311	33.24165
81030	11.29170	8.42762	9.92202	19.14314	27.62017	38.26403	13.43561	11.58249	9.85502	20.15415	18.02210	18.25262	10.43061	9.53214	14.13714	35.38992	28.99398	21.90589
81190	11.54130	12.10501	10.59736	16.79484	34.01653	29.96518	11.68039	13.28703	12.63157	10.21150	20.99409	15.31756	12.17132	10.97376	8.98340	15.13839	18.66110	14.96886
81350	7.11598	8.34388	10.13861	9.59148	13.23628	18.77849	9.48456	7.37163	11.39100	16.31395	23.85051	16.72079	9.83968	10.05235	8.11774	9.15371	28.71475	28.43387
81520	8.32711	8.56587	8.30263	20.45173	16.24439	24.68517	9.45583	12.51272	12.70768	33.10624	11.66777	11.11291	11.17023	8.13575	7.92235	22.33778	15.04530	19.07789
81680	9.22587	12.31679	13.62697	23.38629	33.37635	25.20968	15.49194	11.72243	7.55928	23.85831	15.81500	11.84407	9.34321	8.07656	5.26568	23.29429	29.63056	13.76368
81850	11.54195	8.01536	9.71333	12.03673	8.70079	10.57764	4.85997	10.06752	10.31839	10.98685	8.50323	6.28254	5.26570	7.53869	8.26116	8.10639	8.24226	18.43365
82010	8.77174	8.33615	8.93773	16.03405	9.39624	15.18284	9.50093	6.20156	10.50030	8.07465	13.67306	16.92115	9.98163	10.71040	12.91253	24.47390	9.75155	19.51471
82180	11.36151	9.73911	11.58114	17.56999	17.48526	10.69250	13.48131	10.93762	8.40723	8.91231	5.46128	13.78440	4.66728	8.70246	8.94827	14.96956	17.56710	18.12521	22.24	6.0	0.00	6.27	0.01281	0.01293	0.01697	0.00779	0.00581	0.00636	0.00470	0.01271	0.01696	0.00677	0.00687	0.00903	0.01496	0.01102	0.01203	0.00218	0.00618	0.00869
82340	5.91560	7.22461	8.78846	21.43270	10.98303	22.99367	8.30949	8.32087	9.90916	11.95613	10.52376	13.63811	10.93299	10.26943	11.66853	19.13167	21.50346	45.86602
82510	11.94220	8.94047	7.29014	29.35514	31.49224	18.36644	11.36488	9.57084	7.47340	18.64453	18.39966	13.06563	7.06469	5.91078	7.35020	17.24896	37.26092	14.90628
82670	8.41631	8.24887	10.70752	21.98482	29.70641	22.02272	15.74498	14.29160	15.30343	16.61719	21.48128	23.79173	14.29641	14.55294	12.20402	31.58243	49.96046	43.84981
82830	11.67098	12.20136	10.34975	25.34133	22.60497	35.03239	15.60382	14.57185	13.41907	12.95721	14.29848	19.28513	11.68971	8.80301	12.69319	17.23012	16.21011	10.94903
83000	8.04945	10.43982	10.89904	50.23929	43.03600	42.44964	12.41091	11.86899	12.64560	47.57507	28.45558	26.53198	11.16365	13.02755	11.27848	36.88291	24.74091	25.52673
83160	9.92860	11.65564	8.12625	13.41529	22.96614	9.40615	10.72960	13.08602	11.11077	15.00303	11.89229	22.02858	9.30421	8.23150	12.72802	8.80227	17.95805	10.82994
83330	12.34473	11.43621	11.61793	11.08625	8.20612	10.84426	12.44321	14.21552	5.24747	16.13815	12.73836	9.05900	12.39852	9.45832	10.45325	8.81913	8.35795	9.43980
83490	8.11119	6.63199	5.73428	10.64794	12.91140	16.38206	9.58830	7.67036	7.08330	20.99496	12.14013	13.31658	7.39283	8.35448	8.95556	7.46669	18.00316	18.65970
83650	7.14427	8.83124	9.98366	6.35368	17.87311	7.05611	9.47627	8.04662	7.07482	14.51773	21.71370	9.13783	10.39293	10.27116	10.31111	16.96771	15.57024	13.23097
83820	9.20627	8.32617	6.51146	8.39513	13.06942	7.69552	12.44726	11.90917	9.05981	19.99228	17.19720	21.12382	13.23938	14.33959	14.07112	12.53924	11.66897	33.33467	22.24	6.1	0.00	7.32	0.01281	0.01293	0.01697	0.00779	0.00581	0.00636	0.00470	0.01271	0.01696	0.00677	0.00686	0.00903	0.01496	0.01102	0.01203	0.00218	0.00618	0.00869
83980	14.58970	11.17683	12.43968	39.45652	24.79671	32.92788	19.69864	15.64754	8.77234	32.51248	27.52455	15.98905	13.91781	9.22601	10.36732	15.41798	7.37699	11.55273
84150	10.61615	5.21038	7.19772	9.13139	6.99812	11.03476	12.67074	10.19753	8.25943	7.54291	6.64261	5.20019	8.58456	9.78636	9.54115	7.03123	8.69613	8.37197
84310	9.25183	10.25696	10.51480	20.93806	28.30874	20.52948	14.32711	14.85678	11.08043	14.13917	14.20671	27.33201	8.93917	8.25715	6.53976	19.42660	14.69140	16.01956
84470	5.74084	5.12302	6.84524	26.61982	21.61987	23.57242	11.57315	12.73626	13.89375	48.33240	28.45279	32.19591	13.77761	14.21465	16.82272	39.74268	35.99771	37.38820
84640	12.71166	12.39365	13.36596	37.24640	26.58895	18.51051	13.37515	7.96043	8.66809	23.11177	6.70520	10.90970	9.34354	9.39892	8.12013	6.79101	4.41850	9.70073
84800	8.87837	8.49684	8.05094	8.71121	12.37734	12.53082	7.44364	11.36508	12.12864	12.49876	12.50413	21.30804	13.28916	12.49897	10.67336	10.84227	6.95725	6.09714
84970	9.23205	10.91863	9.22345	10.53094	9.30144	15.05283	12.52375	14.38636	13.15209	10.15635	11.18115	10.22710	7.12825	9.57409	7.90112	22.08163	8.93893	15.85525
85130	11.29341	7.20391	8.97073	12.60091	19.86029	15.00293	11.69035	8.51020	5.14402	6.92691	5.74104	10.00101	8.93164	6.68000	9.04454	16.28547	7.98352	12.67394
85300	6.70455	8.82935	11.30893	7.67009	16.34946	11.56612	13.05913	12.96376	11.24636	16.56342	8.70420	15.14841	12.34763	13.42992	13.32172	19.07471	19.25068	10.61535
85460	11.07495	7.97202	10.38299	12.30444	10.68812	15.76786	11.65096	9.90984	12.10429	9.52275	10.86671	10.39435	11.10731	11.21433	12.01024	15.99555	13.81008	13.88425	22.24	6.1	0.00	7.29	0.01281	0.01293	0.01697	0.00779	0.00580	0.00636	0.00470	0.01271	0.01696	0.00677	0.00686	0.00903	0.01496	0.01102	0.01203	0.00218	0.00618	0.00869
85620	10.23586	8.75187	8.98726	16.48348	12.35105	21.59701	9.03481	12.20748	10.39090	12.19585	15.50440	8.64337	9.72613	9.85905	10.66286	22.84915	15.20368	10.69819
85790	4.55016	8.09507	8.04192	16.23845	22.65278	11.68591	9.05722	8.22852	11.27523	13.60379	13.77300	12.89891	11.68366	15.48361	9.61373	16.36852	16.58122	17.15908
85950	9.84325	13.32833	15.04377	30.49597	16.90812	33.30521	18.00286	16.73504	15.17495	15.07486	24.90233	29.08801	10.46819	9.46480	12.67490	9.69539	13.21431	22.74524
86120	9.78331	9.80197	11.01213	17.79682	21.28470	27.97622	11.30002	14.01712	13.98227	17.55024	18.79522	16.34845	10.19502	12.30198	11.55483	14.84056	7.73678	7.94229
86280	11.62635	10.38212	9.89011	14.99020	6.21601	5.89609	11.82536	11.53557	12.69917	8.06449	5.11359	12.46039	9.92606	11.54766	12.28706	21.95111	18.32611	25.79075
86450	11.40037	10.60380	8.86264	9.71025	23.50855	16.47376	9.67431	13.73111	13.38990	16.43981	21.01668	14.10062	13.53516	12.74157	11.30728	26.24855	12.06268	31.09254
86610	11.65259	12.41769	9.15475	42.33488	22.72954	22.58923	17.27789	9.91092	14.15826	20.32906	36.83735	27.64938	8.69656	10.76208	10.87106	25.05614	23.23069	21.05015
86770	11.27290	7.54575	6.71571	14.43275	13.04383	16.63646	13.97712	12.62789	8.25299	20.19114	10.96852	12.22926	8.45340	9.19537	9.24402	11.53438	12.94087	7.92220
86940	10.07884	9.96496	7.45532	16.42806	19.74667	10.75387	10.98823	9.79977	8.15500	23.14831	16.80242	6.66197	7.91333	8.00091	11.46119	11.48106	9.93981	20.35814
87100	7.80574	13.07003	10.65168	24.07920	28.51321	29.81119	16.83182	15.69098	15.43194	46.59709	31.36341	22.50244	15.31611	13.92727	14.85518	51.55204	21.28044	29.24034	22.24	6.2	0.00	7.20	0.01281	0.01293	0.01696	0.00779	0.00580	0.00636	0.00470	0.01271	0.01696	0.00677	0.00687	0.00903	0.01496	0.01102	0.01203	0.00218	0.00618	0.00870
87260	8.53579	10.72735	13.26136	37.03784	42.26592	23.26074	10.64786	12.34491	12.61970	15.36142	8.80934	16.53427	11.52222	10.80419	10.85538	15.23686	13.57520	14.94375
87430	9.29908	7.60166	8.08444	5.68576	8.61567	6.59832	7.95178	10.90588	8.68617	9.65533	10.23771	11.56699	11.44895	7.37080	6.40088	9.29505	9.49446	8.05061
87590	6.50445	7.77408	7.52115	12.49002	12.60888	10.93356	9.46585	10.78835	6.34846	10.93213	7.31430	2.99442	9.83903	7.03150	6.22207	8.70144	6.79740	7.89954
87760	5.57068	6.98211	6.60004	3.79739	10.69471	5.57737	9.29493	6.46356	5.81789	4.54892	3.40242	5.66384	5.83488	6.00041	10.90078	8.82503	10.31310	9.18575
87920	9.15358	9.80876	5.40210	6.48779	5.35557	7.69174	11.94209	8.98365	12.23297	4.71307	6.90030	6.70370	8.80101	11.03546	8.46684	5.57033	7.43148	5.92336
88090	11.44122	9.82158	8.64076	25.69202	17.67825	11.72173	14.41219	10.73414	13.33070	12.06880	22.59413	13.53375	10.96469	14.25580	13.63554	32.55302	29.46586	17.05053
88250	9.19130	13.66684	9.02042	21.84889	18.00697	12.66273	17.23605	15.04031	11.38828	20.35808	19.83673	17.15378	10.66339	10.94432	7.95450	10.40092	17.98301	30.32751
88420	11.16719	10.83065	11.37357	17.17839	21.13543	13.23015	7.25741	10.38230	10.69596	17.89208	14.32781	12.39761	10.97257	7.40330	7.08624	8.24053	11.66344	7.03428
88580	4.45624	3.95047	10.29321	4.41510	3.77065	4.51111	7.84842	8.06784	8.93321	3.42841	3.64323	2.99834	6.24666	4.37229	4.81272	13.38274	5.35594	11.14757
88750	4.27287	7.54183	9.99895	13.99445	12.15684	19.18964	15.52687	13.44883	11.02982	13.33883	17.52542	10.70416	16.35529	10.67582	12.72658	13.35285	21.90963	26.71011	22.24	6.1	0.00	7.24	0.01280	0.01293	0.01696	0.00779	0.00580	0.00636	0.00470	0.01271	0.01696	0.00677	0.00687	0.00903	0.01496	0.01102	0.01203	0.00218	0.00618	0.00870
88910	12.95578	11.06494	11.85538	19.41817	22.24973	10.49990	12.63082	11.49533	6.09475	5.71051	4.27266	5.90785	9.59666	9.40783	9.63624	10.24516	9.08166	9.68550
89070	9.21254	11.52841	10.73597	7.24923	8.01551	9.36413	10.81676	9.62763	8.35624	8.16884	12.19773	24.71155	7.68623	8.40795	10.04815	29.88724	16.17085	9.42847
89240	9.93426	12.87567	10.80884	11.44327	15.54567	9.68354	10.53635	10.59790	9.74503	22.58431	23.09361	14.26185	11.70050	13.91783	13.12940	25.77980	15.84324	14.92833
89400	9.08042	7.07373	9.69623	16.14643	14.03203	12.89879	11.01253	7.61321	9.04824	13.06291	14.55872	18.58232	11.20160	9.85333	7.34150	9.89728	9.75115	10.88370
89560	10.55370	8.74209	11.58951	21.44748	23.70551	16.90668	10.81387	11.69428	10.44329	26.25885	20.76398	14.00993	10.34116	11.67694	12.82030	18.76404	17.79161	14.86643
89730	9.59706	7.24385	5.13293	16.86246	23.90495	17.86533	12.98196	10.34050	7.27236	15.83163	9.54484	7.75512	9.40355	8.80663	10.40605	11.81100	8.06469	9.24488
89890	8.56802	12.09539	4.90063	4.82439	7.68289	19.52863	8.82477	10.80905	10.32602	8.40775	19.44882	13.50868	13.84070	12.42571	10.11863	38.26275	23.08019	27.23884
90060	9.29346	10.40584	11.71972	13.75765	34.31872	27.48314	13.17077	11.15332	12.34053	13.04416	21.63277	15.18952	8.71288	10.39602	10.99348	25.95704	28.96789	16.31782
90220	10.29328	9.22133	5.48567	6.72685	10.64553	16.82543	9.40103	9.80550	5.78289	16.33828	25.64538	28.52880	9.12381	6.20354	4.80689	16.34476	12.28914	8.06343
90380	5.41319	6.52542	11.86707	21.65781	14.23815	16.77454	12.70303	11.35450	8.99406	9.63139	13.19586	9.74007	12.75584	10.29909	8.95431	13.98212	20.76301	19.50651	22.30	6.1	0.00	7.23	0.01280	0.01293	0.01696	0.00779	0.00581	0.00636	0.00470	0.01271	0.01695	0.00677	0.00687	0.00903	0.01496	0.01102	0.01203	0.00218	0.00618	0.00870
90550	9.54646	9.55509	9.56689	18.38036	17.85565	13.18758	11.26683	10.90552	13.62205	19.74171	22.66944	16.33895	7.21306	7.74489	9.27787	14.57376	13.62366	10.74203
90710	8.76127	8.78881	6.08842	11.60487	14.04287	7.60342	9.06898	6.09864	9.02342	7.85117	6.56515	6.36264	11.07851	9.80117	11.03226	8.54332	7.78716	10.35123
90880	8.80485	9.09806	6.40358	8.01655	3.95097	6.23955	8.95970	5.87622	4.09576	3.93280	7.57661	8.55102	7.84249	7.39485	5.20260	5.06652	12.51135	11.02267
91040	7.66078	11.13745	9.41470	35.51226	26.51950	16.06403	15.06249	12.00675	9.53790	13.45796	16.60359	23.67738	15.34849	11.71488	9.97892	18.93467	6.60149	10.88984
91210	7.70138	6.35320	7.76893	4.59654	6.69220	8.76241	13.10104	11.70853	9.61211	4.64311	12.40728	8.03054	7.90792	6.32629	11.21272	23.49024	14.15809	9.79068
91370	16.25670	14.40083	14.81876	32.55903	21.57179	27.36954	18.74661	15.06889	12.53369	9.86820	7.84206	15.62295	12.72373	9.13963	6.53506	6.41729	5.52648	4.75101
91540	7.02594	8.62710	10.73316	6.74159	8.04576	9.23450	8.29914	8.18956	6.91580	10.47343	19.15189	7.52784	6.79262	4.49169	7.53968	4.77989	7.85441	10.46258
91700	9.53125	11.73105	12.57233	16.63325	21.46274	11.05013	15.07000	14.96448	13.04148	12.86446	10.99742	14.47744	10.10061	8.69612	7.20060	17.25600	14.59051	12.19778
91870	9.90253	6.80512	3.25440	10.46421	8.03828	7.78915	12.38699	12.06967	11.70794	10.52567	20.30024	16.30799	12.46654	11.78666	12.03524	29.49464	22.40773	17.98246
92030	9.17437	9.93282	7.31118	13.64869	22.37145	6.18799	9.55625	12.97970	7.33539	17.39638	18.44860	11.61926	8.71928	6.64499	10.66418	11.84006	6.32174	5.83648	22.30	6.1	0.00	7.22	0.01280	0.01292	0.01696	0.00779	0.00581	0.00637	0.00470	0.01270	0.01695	0.00678	0.00687	0.00903	0.01496	0.01102	0.01203	0.00218	0.00618	0.00870
92190	8.79012	5.43383	5.86637	2.22920	6.47070	8.55492	7.62157	7.56530	5.99463	10.82040	6.56630	11.63199	9.64549	9.63071	9.70484	7.37897	7.03906	12.66658
92360	12.21979	10.55157	9.79443	17.97823	12.59141	12.47425	14.96659	14.97693	12.99693	27.95927	24.86225	25.30388	15.62964	10.67678	5.77813	33.54608	34.78900	26.76993
92520	11.50312	9.21914	11.20527	27.21010	32.65988	27.73590	9.16059	8.04501	10.68006	15.24157	16.12252	20.00456	7.84880	8.07465	10.43047	10.43844	16.12369	19.50102
92690	7.99472	8.47263	6.21768	16.69142	9.39101	7.18412	8.49356	7.36109	5.60269	13.83650	13.67326	18.60992	9.67394	9.77025	8.26608	11.00007	20.11570	14.86254
92850	7.62756	7.48583	8.09850	23.96067	19.13503	17.76938	10.36133	12.66987	8.91836	12.23468	12.16517	11.87667	11.02764	10.24981	7.79925	26.47391	10.93207	7.72673
93020	8.83286	9.12941	11.33624	11.29674	12.10450	2.90256	9.22542	6.75047	9.69441	6.51247	4.97638	5.62180	7.82141	7.31494	7.09649	3.24829	3.15167	2.95662
93180	4.87013	5.24643	5.63045	8.39540	10.03702	7.67414	9.00491	10.11718	6.38864	7.57013	8.88911	8.81909	11.28666	10.01543	6.31368	8.39307	15.63925	5.08350
93350	6.08260	8.82551	9.98370	5.51782	8.54019	4.56321	15.57474	12.94608	9.47228	9.69261	7.88551	9.17930	11.14787	12.72919	9.60467	6.89211	7.36613	8.67904
93510	10.53065	13.21965	11.36935	13.10547	9.24709	19.15586	11.96095	11.50301	8.26848	16.17725	16.32429	16.17969	9.71896	7.26795	6.85064	10.33544	16.44901	16.49438
93680	5.80350	9.11752	4.62631	13.57184	15.27436	10.76928	8.35797	11.63424	5.74057	6.32915	9.46652	8.85682	8.95980	8.29166	10.80368	11.61466	9.18813	12.58175	22.30	6.0	0.00	7.25	0.01280	0.01293	0.01696	0.00779	0.00581	0.00637	0.00470	0.01271	0.01695	0.00678	0.00688	0.00904	0.01496	0.01102	0.01203	0.00218	0.00618	0.00870
93840	8.02628	10.19269	8.93004	10.50646	19.25452	12.69454	11.79962	8.45843	10.52045	9.81584	12.41538	7.18315	11.03094	7.85336	6.66033	11.98865	10.28877	7.21098
94000	10.48405	9.04850	9.01769	10.58612	9.08735	3.49679	7.77650	8.14684	8.28617	3.48638	4.78354	3.38904	8.00425	8.95400	6.72128	5.82991	4.18537	2.61609
94170	8.47935	5.03644	7.00900	3.69847	4.84625	4.56353	11.47573	6.82306	9.36593	6.33660	2.17970	4.33633	12.73490	7.90473	8.76214	5.76257	6.76270	6.86532
94330	6.05437	7.58610	10.35680	6.65802	4.92312	2.79812	9.76295	8.83770	7.90915	2.90943	4.10996	4.70196	6.89339	5.01354	6.58459	5.46897	3.97124	3.29293
94500	6.07282	6.07494	2.43962	3.83272	9.85597	8.54884	6.21259	6.62458	6.20616	8.29542	4.24004	7.02954	7.54974	7.58635	9.55825	10.79391	8.63888	13.61718
94660	8.03092	10.37493	8.76575	10.28817	6.88898	6.27257	9.43170	12.89483	8.72071	9.27822	7.48052	6.61643	9.99901	13.18406	9.91672	16.12194	8.87535	7.98082
94820	9.61747	9.62736	9.98283	11.26781	19.45652	15.13228	19.23073	12.64306	13.04947	26.09094	21.38946	24.10211	12.90991	13.42839	12.14636	14.73970	27.05791	33.02720
94990	10.37294	10.44399	8.44011	20.85882	30.42493	17.63568	17.31150	9.60086	10.24647	11.67940	10.69267	6.25542	5.41137	8.73182	10.50950	15.35644	11.44626	8.79853
95150	7.37757	10.63015	7.76877	13.75836	18.74569	11.29812	10.42299	7.32800	8.79122	9.58779	13.16395	13.37442	9.18820	8.91657	10.26737	13.85869	17.38696	14.07015
95320	7.91319	8.75088	8.78696	19.70385	19.75847	31.99341	13.34754	14.38012	10.25288	15.61901	16.03817	13.51909	13.64486	13.28550	8.92671	9.02319	8.87016	7.75773	22.37	6.1	0.00	7.34	0.01281	0.01293	0.01696	0.00780	0.00581	0.00637	0.00470	0.01271	0.01696	0.00679	0.00689	0.00905	0.01496	0.01102	0.01203	0.00218	0.00619	0.00871
95480	7.80516	10.03668	11.15033	15.09859	14.31079	12.29213	11.64387	6.19582	11.33876	10.53268	9.60737	5.86823	9.45502	6.06876	6.61776	6.84046	13.17135	9.51260
95650	8.44721	6.76096	7.01357	13.14742	13.43147	7.38278	5.66945	6.81060	5.36095	5.87419	4.69092	1.39797	7.85501	6.64197	7.90654	3.53264	1.79789	1.93559
95810	8.32458	5.16320	5.24026	1.80890	5.03376	2.73538	11.69549	11.27481	8.95210	3.46335	5.66759	5.14587	6.53843	7.79662	8.78312	3.73044	2.97426	3.79479
95970	9.50105	7.35719	9.17387	3.36255	3.80142	3.92844	10.60736	8.48195	8.06268	2.93546	5.61863	6.89751	4.64674	3.59796	4.22938	8.93354	7.01502	2.30887
96140	2.88741	3.25468	1.99065	2.65505	3.79939	3.11137	8.24290	7.64942	6.66983	1.40161	1.46098	1.89611	2.91893	1.86333	4.13282	4.45115	3.45076	6.91160
96300	4.31269	7.05599	6.60350	3.78367	6.47658	5.44177	6.70348	7.50405	9.91869	4.14195	13.79710	14.30205	4.94538	7.17707	7.27475	17.91676	12.73478	13.85713
96470	10.94204	14.28724	14.25502	40.50953	30.80773	25.51721	14.96436	10.30746	9.79660	21.86830	24.86059	15.66041	14.23432	15.03909	12.59655	14.32809	22.04559	17.54163
96630	11.25896	10.45561	9.54815	19.28322	15.47842	9.22747	9.46509	11.03826	12.08325	7.31219	6.55826	8.44358	10.75897	10.44057	8.14956	21.24020	15.66377	9.23016
96790	8.78930	11.06367	8.66293	6.16060	8.39671	4.95582	8.51799	10.45576	13.29538	10.59864	5.15331	4.91505	8.49836	10.72552	4.66404	10.10190	11.07542	8.29165
96960	9.26330	11.72273	9.54011	13.12807	15.78651	7.37233	13.19925	13.12154	11.94981	6.30816	14.64098	11.93465	12.23556	12.39952	9.08004	11.73074	18.45997	21.52117	22.37	6.1	0.00	7.35	0.01281	0.01293	0.01696	0.00780	0.00581	0.00637	0.00470	0.01271	0.01696	0.00679	0.00689	0.00905	0.01496	0.01102	0.01203	0.00218	0.00619	0.00871
97120	9.25760	10.61240	8.39381	13.16742	11.84566	13.53663	7.58239	12.02598	9.24696	6.24207	7.67105	7.57755	7.73845	7.02904	7.93468	9.56572	8.25235	5.38721
97290	7.77612	6.43933	7.31838	3.29870	4.01746	4.16326	10.47834	6.04333	7.97893	1.14076	1.17228	1.17423	6.19490	7.96556	9.88610	5.39196	2.74300	2.74995
97450	3.98836	4.36651	5.60012	4.16136	4.39412	5.41591	7.61587	7.03664	10.73877	5.78207	4.66154	3.69517	9.33840	7.49911	7.92465	5.23716	11.29080	9.00965
97620	9.19164	4.91321	5.51458	6.16309	10.29232	14.23241	8.64488	11.92072	10.11148	10.24280	6.78894	8.24627	12.90983	11.31374	10.53101	7.15182	6.66429	3.72520
97780	10.09655	9.86852	7.62910	4.05397	5.63067	7.73257	13.21966	7.97572	8.33974	7.38020	4.80799	7.17892	7.56779	9.49278	10.00127	5.29958	3.99111	4.36170
97950	9.03269	9.80495	10.38091	7.81558	5.81343	9.69879	6.75024	7.86940	8.94410	6.67173	6.89848	18.11062	4.55178	6.47038	11.80865	12.67363	16.48783	10.78394
98110	8.08916	8.55701	8.50227	15.04271	18.73568	7.78093	10.25783	10.50763	10.64453	9.41824	5.89137	4.60247	8.77121	9.81199	9.37711	6.16866	5.89977	3.96823
98270	8.00563	6.82924	10.58579	5.83451	9.22510	11.11267	11.92191	11.42581	6.93475	8.80792	13.40429	15.74525	15.31484	13.34039	12.59977	15.12887	18.72091	11.96022
98440	10.57015	10.92765	11.78794	25.50411	28.93932	20.85721	8.36207	9.88091	10.34591	31.64791	36.90174	22.08960	10.16240	11.10233	13.63215	26.72785	26.82281	27.44246
98600	11.27502	13.58786	16.74412	24.96192	37.95916	47.25620	16.14944	15.31903	13.89019	44.80586	32.11757	36.11189	11.80675	11.41349	11.99737	57.36667	82.94317	32.34246	22.37	6.0	0.00	7.20	0.01281	0.01293	0.01696	0.00780	0.00582	0.00637	0.00470	0.01271	0.01696	0.00679	0.00690	0.00906	0.01496	0.01102	0.01203	0.00218	0.00619	0.00871
98770	13.27908	11.76716	14.50984	21.61991	24.62086	36.26374	12.78684	12.30072	10.13431	30.88999	21.49409	22.13398	13.60261	11.56715	9.56699	30.16361	10.65383	12.13083
98930	10.41286	11.92712	12.70618	21.90108	21.86218	23.50096	13.86898	13.88157	10.07874	24.49883	16.49684	9.09378	6.93992	6.78075	6.92836	13.28609	8.81928	8.73104
99090	5.85185	7.48076	7.29051	8.37202	9.07014	6.66776	6.86538	4.32313	8.86954	5.47363	4.70306	4.69425	10.86481	8.57543	10.20862	2.56760	2.50773	4.08659
99260	5.84977	4.11756	3.07630	3.60180	3.90267	4.44130	7.09076	7.11060	8.22591	3.62971	3.83878	4.19084	7.19351	6.93130	9.30898	4.85411	5.81050	4.25679
99420	6.36714	7.46649	7.14123	5.80743	6.93293	3.19035	7.36319	7.29147	7.12187	2.53849	3.74589	3.83382	4.58195	6.82774	4.17953	4.42764	5.27930	5.07253
99590	9.17434	6.97760	8.06763	5.94155	5.37118	3.07669	12.01277	8.30277	6.75132	3.23543	2.47282	2.89233	9.14397	9.74716	10.93458	6.64974	5.94392	7.24441
99750	5.12152	9.64358	6.07100	16.53314	20.13437	18.17291	12.78946	10.54168	8.74128	4.41606	5.68557	6.27240	11.43805	8.19057	9.02119	8.37258	9.26543	5.93394
99910	4.77716	6.95583	7.93160	2.60840	2.30577	3.28218	9.54582	6.90243	7.03470	1.83159	4.76407	3.27263	9.83060	9.24136	9.01049	6.43512	6.03446	6.83005
100080	8.15744	8.69662	7.39251	6.13353	10.23320	6.31594	7.12092	8.25127	8.42932	3.27810	4.05741	4.24451	8.47675	6.92323	8.03736	9.42454	8.06969	3.11596
100240	8.24266	7.48529	8.18353	5.41811	5.62033	5.98604	12.89693	12.82403	7.79280	9.70152	5.77840	5.31618	12.56262	8.73583	12.04227	17.13593	15.26558	10.03210	22.37	6.0	0.00	7.19	0.01281	0.01293	0.01696	0.00780	0.00582	0.00637	0.00470	0.01271	0.01696	0.00679	0.00690	0.00905	0.01496	0.01102	0.01203	0.00218	0.00619	0.00871
100410	10.06358	8.44997	8.14197	9.89217	15.29103	17.58111	11.29837	11.18414	8.15227	19.42778	22.57472	15.05146	10.90079	10.73733	8.80516	13.12442	9.00026	8.21593
100570	10.11408	11.37731	13.55005	9.26344	8.12618	10.91346	12.56256	10.17699	12.52156	10.17900	12.91670	16.43295	9.85285	10.05998	9.90000	15.73138	16.66079	9.89161
100740	7.09035	6.65492	8.28699	11.14168	23.00632	17.85798	8.48959	4.87533	10.09534	12.27858	16.87104	14.91561	11.08640	10.28033	11.81138	20.95633	18.14614	11.92152
100900	12.10831	10.31422	11.24964	11.84978	15.58835	11.90735	8.54900	10.13146	5.43837	4.99413	4.84079	3.48284	5.96628	6.31397	6.47196	12.02651	7.30328	6.63458
101070	5.32405	2.83069	4.29959	10.19078	7.96312	4.84622	7.40977	8.00895	9.14759	11.22819	8.34954	13.15147	10.31554	11.35978	7.83737	8.58917	13.68007	13.35698
101230	9.32283	9.73447	6.56433	11.95935	7.24552	3.94146	9.26188	8.74102	6.29282	8.12603	7.07089	8.06002	5.98275	6.50154	5.99197	5.36592	2.25977	3.97181
101390	5.95074	6.40928	5.91876	3.81389	3.64671	9.30273	9.12624	8.24029	12.27625	10.77908	5.86666	17.37786	6.20123	9.13367	9.67337	23.92925	14.23343	9.09579
101560	8.94085	14.09324	13.18096	12.69207	7.51113	9.32930	10.66724	8.60853	10.86941	10.31226	4.65271	6.50987	7.77888	5.32467	5.27246	15.43838	20.46199	13.87234
101720	6.09266	9.22849	7.98587	14.34310	13.67048	7.26336	9.87045	6.17199	8.73764	16.46408	12.82280	8.12976	8.30415	6.23130	9.43160	15.54604	10.85290	32.98181
101890	11.35599	13.09100	9.64031	19.91118	13.08011	12.90309	13.03986	10.96976	6.88549	11.11265	13.05467	9.62260	3.32830	8.34035	9.38387	8.45765	14.24784	11.38031	22.37	6.2	0.00	6.40	0.01281	0.01293	0.01696	0.00780	0.00582	0.00637	0.00470	0.01271	0.01696	0.00679	0.00689	0.00905	0.01496	0.01102	0.01203	0.00218	0.00619	0.00871
102050	9.93352	8.52155	9.22300	5.06102	8.11988	9.62623	6.37275	7.26918	5.81364	8.30670	11.91510	10.67214	7.98014	8.52589	12.51619	6.83763	4.53979	8.08832
102210	11.02674	9.70462	10.27258	8.08978	8.82315	8.11117	14.13459	14.53656	11.56036	5.51307	8.30524	7.41680	12.49354	10.28501	14.93108	9.08167	8.54963	6.06773
102380	8.86082	10.74246	11.25456	14.20776	6.92826	7.12100	12.78551	8.76515	9.74083	5.30190	6.25118	7.47093	11.07144	8.19983	7.44539	5.91744	8.44122	5.31330
102540	8.65722	9.91394	8.70721	5.57077	3.29722	8.07715	11.58775	11.02005	10.79606	3.30631	9.67862	6.64156	11.82515	8.76867	9.69110	21.32571	26.39931	29.78900
102710	10.28495	11.40088	8.55388	20.66230	25.21865	11.14778	8.97025	11.60927	10.08679	13.42041	17.85067	13.96585	12.47611	9.56559	7.65326	21.92594	19.94191	20.11991
102870	8.16205	5.48234	9.15095	13.64513	7.43828	6.53996	16.15830	13.63919	10.32354	8.57905	10.10727	14.93614	15.33180	9.30395	7.78126	20.01753	10.93731	13.35779
103040	7.02398	7.87018	6.71473	9.00823	10.45099	6.29198	10.96849	9.68394	11.00684	13.14611	6.98473	9.63374	8.98792	7.47828	6.46994	12.27669	12.48201	9.62509
103200	10.51785	13.75759	10.04069	15.77021	10.11834	9.20721	14.07332	12.97846	11.82751	17.60955	12.69824	12.76053	9.83556	9.55085	8.45289	18.09421	22.61608	22.38432
103370	10.52024	9.74517	13.15455	28.86443	9.14181	24.23296	16.43472	10.64718	11.63247	42.70542	24.30351	18.14460	9.35557	9.02532	9.10506	11.07410	7.22624	6.04617
103530	8.20091	5.34405	8.78772	14.12536	15.78470	10.43678	8.03957	6.06545	8.58754	6.88447	9.10407	8.08582	9.34013	7.44262	6.92996	8.05509	11.14578	5.33974	22.37	6.0	0.00	7.19	0.01281	0.01293	0.01696	0.00780	0.00581	0.00637	0.00470	0.01271	0.01696	0.00678	0.00688	0.00904	0.01496	0.01102	0.01203	0.00218	0.00618	0.00870
103700	6.45983	5.20433	6.33267	7.85774	18.84020	11.70740	11.57989	10.35588	11.84649	27.87923	26.17127	36.83980	13.51638	13.74179	11.14057	53.27081	46.92556	43.13035
103860	9.64681	7.83745	8.54104	40.71892	22.18567	21.90041	15.04916	13.84714	11.47414	24.06410	24.42273	18.20909	5.41123	8.05599	3.83988	14.94743	11.29304	21.78682
104030	9.99018	8.48426	9.36034	9.32694	13.41110	12.84805	16.01726	14.40983	12.84769	24.87321	12.66548	20.49624	12.72253	10.47925	10.05259	28.77387	31.53628	13.57857
104190	11.58378	11.52936	9.37640	7.45827	15.38410	20.32710	11.47839	11.51489	8.32921	7.08089	14.05900	20.35228	12.95281	14.05167	13.89528	34.92384	28.04283	21.50930
104350	9.42121	10.10577	12.30128	13.44083	14.55609	9.76018	12.62350	18.67742	10.97006	26.13431	11.34715	12.50577	9.94771	10.91377	9.50584	13.02031	14.96144	11.22191
104520	8.10774	8.57937	7.67104	5.31731	11.36313	11.40697	9.19260	5.97418	10.00894	8.88706	3.14020	9.36225	4.08025	6.99217	8.51447	5.36116	6.91470	7.11337
104680	7.54278	5.99540	6.22488	16.78362	16.44001	12.60488	11.35532	11.56646	11.09011	19.14990	23.24905	12.47223	9.20444	10.73066	5.27498	25.03667	20.46911	28.71016
104840	8.31922	7.77917	13.36966	14.45269	17.19876	14.61749	14.23314	11.62498	10.33729	17.57051	17.93449	14.60613	14.06164	12.89905	9.94530	28.91531	34.90028	21.65088
105010	13.23687	8.97667	12.90358	24.66742	24.22393	13.16296	12.05288	10.75268	11.25895	29.94002	14.96515	20.57643	7.31349	10.38540	10.89825	16.43067	15.43850	8.43726
105170	3.61334	6.71023	8.23667	13.90682	6.72049	6.81275	9.02210	11.66384	9.51865	14.03519	14.03469	17.63185	7.27354	10.13511	9.39907	19.30829	22.93416	28.73697	22.30	6.0	0.00	7.30	0.01281	0.01293	0.01696	0.00780	0.00581	0.00637	0.00470	0.01271	0.01696	0.00678	0.00688	0.00904	0.01496	0.01102	0.01203	0.00218	0.00618	0.00870
105330	5.37644	10.34409	10.25973	23.75221	25.68005	11.10783	15.43683	10.69758	10.85683	10.11054	11.90598	6.44462	9.48321	11.12355	6.19093	7.13005	7.62971	6.83260
105500	6.89729	8.49096	9.87264	11.06404	9.84533	27.67714	12.90789	11.69931	11.48761	17.56727	23.28018	12.06087	11.13806	8.55982	9.45035	27.51819	31.04295	12.36850
105660	11.35830	10.86249	7.99795	9.80083	9.78980	15.91326	11.78275	7.09673	7.77762	5.28106	2.14247	2.35998	9.66510	6.80569	9.73107	6.73839	4.60400	5.84940
105820	7.48467	8.22958	10.51521	6.60396	12.75044	15.29569	13.14757	13.58624	10.36078	17.95027	16.26239	21.81292	11.07769	9.72770	9.46850	31.58980	30.56491	23.58434
105990	8.38020	10.92513	7.42004	24.70466	22.40883	14.75771	9.55972	12.94949	9.97356	20.33733	26.32709	37.84165	10.93156	10.73432	10.16429	35.22023	15.77966	26.84980
106150	7.95903	6.64860	12.54953	18.62363	9.48748	16.08441	14.09528	13.94185	10.78816	13.27305	15.16405	11.58345	8.85997	10.91265	11.29626	24.49805	16.91995	13.57533
106310	8.06461	11.19850	8.37163	18.31338	18.87266	14.32011	10.88038	8.61031	8.83134	18.79593	16.89548	16.74684	13.56631	11.46342	12.87624	25.22743	22.34641	26.35853
106480	13.47786	11.73739	10.27933	23.23498	33.87027	27.14404	13.21741	12.60843	12.12130	24.69029	22.11743	17.95958	8.46886	9.06466	11.38720	26.75338	11.25161	18.98634
106640	8.82136	9.04650	8.82635	22.12546	15.16753	15.91409	14.12163	13.01501	11.43857	11.67160	8.60739	21.54284	11.34643	11.23432	7.25687	6.98976	8.20777	14.18221
106810	9.28861	10.23526	9.43658	13.88812	14.73523	14.87790	13.05259	14.25730	15.52518	16.67394	10.53133	36.06799	11.12530	16.14498	8.59342	39.77665	37.86882	41.10621	22.37	6.1	0.00	7.21	0.01281	0.01293	0.01696	0.00779	0.00581	0.00637	0.00470	0.01271	0.01696	0.00678	0.00688	0.00903	0.01496	0.01102	0.01203	0.00218	0.00618	0.00870
106970	13.91712	11.71777	9.93059	31.14437	39.15001	21.79483	14.99899	13.65402	10.72508	24.57214	11.42077	11.86803	10.68215	10.27472	6.55764	23.67072	20.64270	23.87513
107140	11.27590	8.41120	12.50409	20.92521	45.41265	28.10087	15.47734	14.33907	13.00578	57.59519	30.79708	28.40738	11.74015	13.31443	11.17068	29.63604	24.57658	20.37274
107300	10.85812	10.80413	8.28277	24.44517	20.34992	26.65032	12.23199	17.49373	13.03753	9.26673	9.94481	10.58893	8.99164	8.42714	8.51309	13.68415	10.99034	9.14166
107460	4.85914	6.29380	6.24881	12.56532	9.02137	7.37149	7.48351	7.84471	6.26539	8.95818	13.99160	15.34917	6.48188	8.64824	8.77784	15.71150	19.81098	12.81920
107630	8.12510	8.96245	13.16250	35.69130	23.48314	54.54883	21.41800	18.12151	15.40589	39.01735	69.99159	81.11734	14.96866	13.64340	12.49392	37.83298	39.80748	40.63833
107790	12.36724	10.54287	10.78662	37.71983	35.05601	36.50898	14.30222	16.33462	15.14026	20.42348	27.81843	13.89437	18.14119	14.67052	16.56358	18.57003	15.49060	30.10373
107960	15.37075	12.94470	9.51988	29.18191	33.14721	33.44140	12.07514	10.53517	9.26426	20.67328	19.93081	28.89724	8.82281	14.33331	12.87342	36.72262	30.63471	28.80256
108120	9.94987	11.92425	7.95602	31.51515	29.46588	19.19664	15.67974	11.78492	12.07751	19.88093	22.21598	30.85919	13.43711	14.61037	14.63187	21.97694	19.09816	23.85976
108290	12.02855	11.39508	11.26695	29.56754	14.34689	26.41568	14.42317	11.98401	10.82418	23.98495	20.57099	27.54609	10.28615	10.52302	9.48792	54.01301	14.80596	13.81044
108450	8.14430	11.67021	10.21081	13.30430	16.10371	17.97963	10.69226	10.61825	10.66861	31.49219	42.40948	25.63231	12.90937	14.80742	9.30436	33.05260	27.03293	47.36250	22.43	5.9	0.00	7.18	0.01281	0.01293	0.01696	0.00779	0.00581	0.00636	0.00470	0.01271	0.01696	0.00677	0.00687	0.00902	0.01496	0.01102	0.01203	0.00218	0.00618	0.00869
108610	10.31434	11.74122	9.56164	37.23239	29.59820	54.27874	11.11005	7.99601	9.90043	21.80676	11.78590	16.55590	11.24222	12.97677	10.10646	11.68099	14.48672	15.58962
108780	6.47558	11.22101	11.23643	26.83125	26.24816	26.52836	14.33633	13.04559	11.45973	27.16927	28.78433	28.00512	10.64960	10.87330	9.71237	20.15601	19.14353	66.98101
108940	11.69839	13.78131	11.07257	26.06142	20.89185	29.93058	14.09034	17.62651	14.83079	28.70166	39.13142	27.63198	13.22778	11.87484	11.52565	34.41687	14.84471	13.45635
109110	7.95053	7.99759	12.18492	12.87498	13.54280	15.21436	13.40752	14.76050	13.67629	22.96232	21.85596	27.86401	11.00698	10.32969	8.81384	15.45692	25.09180	32.64301
109270	8.34501	6.50056	5.05025	11.88828	16.02143	17.12403	10.22420	11.55650	10.10949	12.71936	19.28224	17.58333	7.79599	12.00509	12.10535	7.91724	20.46498	13.20688
109430	11.98555	9.21615	11.95682	34.14337	24.38954	15.07654	13.38046	16.59608	12.14689	21.91914	22.85646	37.48534	12.14417	10.99521	12.31034	38.14020	32.30707	34.83589
109600	11.72124	11.15611	12.66733	40.09700	26.79705	22.91616	17.12808	10.37943	10.76080	13.49663	14.53755	16.74418	9.91579	9.37903	9.14944	29.31514	17.65433	19.41151
109760	9.95329	10.90076	12.00433	29.00232	28.33461	38.55607	12.23548	13.52514	16.00468	16.00298	22.45989	30.36935	14.97965	15.03259	15.63580	30.36416	25.15919	22.11285
109930	10.12418	10.91872	13.40952	26.76105	15.67709	16.96114	16.04735	15.65823	14.38067	24.29744	18.22750	14.83633	15.56779	12.96311	12.73160	18.84162	26.55763	33.07800
110090	12.71924	9.47333	10.24539	15.27768	35.80832	27.98923	15.53626	15.04540	15.28842	23.02882	17.28114	18.32332	14.47131	13.39569	13.70437	10.61721	13.13759	9.54180	22.43	6.2	0.00	7.31	0.01280	0.01293	0.01695	0.00779	0.00581	0.00636	0.00470	0.01271	0.01696	0.00677	0.00687	0.00902	0.01496	0.01102	0.01203	0.00218	0.00618	0.00869
110250	10.28752	11.45157	11.93772	11.48239	16.82530	9.20067	15.71735	17.16233	15.95072	22.55400	13.97467	17.53143	12.88968	9.46595	8.73042	24.23757	18.91725	19.75969
110420	10.44154	10.78074	11.95994	18.84582	18.19509	19.92918	11.58420	9.45132	9.12843	13.59665	24.42584	24.32961	9.06768	6.73931	8.70674	18.20057	17.13663	11.20992
110580	9.86148	10.96310	11.33772	10.31968	7.63951	11.35980	14.67349	13.00371	9.76246	8.16353	6.48182	12.50757	9.29172	8.58854	9.29467	20.15977	26.93231	30.99646
110750	15.63136	13.89986	17.24340	19.47732	13.33110	29.28521	16.93433	16.62885	16.87380	45.02739	48.17032	40.83246	15.72113	14.42181	12.14411	30.65771	33.67660	34.63821
110910	10.46067	12.07120	11.93075	25.19264	23.09296	13.47477	14.64456	13.45349	12.73823	13.61053	9.14988	10.44365	11.33862	12.53883	9.53592	15.65027	11.99787	17.34010
111080	11.62910	13.60748	15.67689	35.66325	33.12064	31.05604	14.95760	15.57149	12.37196	43.83519	35.85199	36.89265	15.30780	15.81053	17.10521	42.86540	23.48302	51.08143
111240	15.26264	13.84436	13.58432	34.52749	32.38011	55.88790	16.81419	18.22056	15.09223	65.17950	59.74994	89.55825	18.65604	13.61295	16.44341	76.62013	69.67234	47.55726
111410	20.32542	25.74668	22.49001	38.51932	21.16970	64.21473	26.31301	25.75114	24.70696	54.82131	45.79026	32.23027	18.87458	19.01266	20.17651	45.61277	36.57214	48.58211
111570	19.28514	21.48664	21.62762	43.38611	45.99895	48.88575	23.35498	25.53682	20.45981	34.99029	34.39469	51.01816	17.99569	17.41648	17.05084	62.23533	46.16384	55.97006
111730	17.22949	14.04554	13.19770	33.40980	33.73932	22.45754	21.12330	19.85589	15.86535	24.22464	20.49340	29.89154	10.49841	11.93690	13.03701	31.14586	27.90546	29.22055	22.37	6.2	0.00	7.17	0.01280	0.01293	0.01695	0.00779	0.00581	0.00636	0.00470	0.01271	0.01696	0.00677	0.00687	0.00902	0.01496	0.01102	0.01203	0.00218	0.00618	0.00869
111900	15.17514	12.10383	12.10563	22.39329	20.17178	33.64844	16.65075	14.20342	14.88556	19.29721	24.23840	45.78210	15.66353	10.54850	15.44188	40.82970	32.29102	34.03822
112060	13.51968	12.46422	13.11166	59.50662	47.33189	44.94692	18.54291	12.64343	14.62199	28.59502	18.97810	40.75866	12.58764	11.57902	13.05816	30.76655	30.93263	29.31244
112230	7.44624	7.63239	9.87032	22.42237	15.39571	11.36214	13.69064	14.52319	13.01618	16.11999	13.21929	14.52112	7.72050	11.43871	13.30927	45.10252	30.18781	35.32937
112390	11.76542	10.19695	10.72074	17.40557	23.20007	13.60729	10.15812	11.62491	11.50878	15.45390	6.67220	7.70444	5.72609	8.23185	8.38587	13.52581	11.89897	11.18177
112560	10.53322	9.65409	9.60786	6.26066	8.32108	12.19133	11.94469	9.08515	6.50633	11.52400	19.97108	11.88805	7.40102	10.09817	9.64631	24.88743	15.64676	16.53491
112720	11.57603	10.39814	9.32001	11.72991	6.27130	6.08502	12.40461	11.14250	10.01952	12.15049	10.52664	5.59521	9.33925	9.53984	7.17519	7.60249	5.63241	4.85888
112890	6.84377	9.43577	9.46112	7.71281	16.72566	7.96208	14.68535	13.69489	10.94238	15.31719	13.88469	17.35994	12.96082	11.18476	9.46971	11.60973	6.75341	18.38343
113050	13.48527	11.20907	9.90649	13.99672	15.76298	15.32296	16.70536	8.80561	14.11134	28.72053	29.47738	20.24480	8.83121	13.86703	12.30591	24.83856	17.03969	29.36545
113220	10.83431	14.61132	14.68246	11.63747	11.37460	21.72899	15.52093	17.14595	13.99917	26.46535	41.45714	28.02841	12.68850	12.76941	8.86134	22.27510	26.69767	26.67920
113380	11.30349	12.73934	11.04455	25.95756	30.68118	10.01470	16.39040	10.08609	14.09651	9.34428	12.79815	10.26638	10.97496	13.09572	13.95964	10.55379	17.08891	14.96238	22.49	6.1	0.00	7.25	0.01280	0.01293	0.01695	0.00779	0.00581	0.00636	0.00470	0.01271	0.01696	0.00677	0.00687	0.00902	0.01496	0.01102	0.01203	0.00218	0.00618	0.00869
113550	8.03066	7.51156	8.64564	14.37401	15.83411	19.89916	18.10605	15.49839	14.41439	21.85831	15.62352	24.16886	14.55211	10.15605	9.95905	22.13813	17.69349	8.41321
113710	12.65922	13.37474	8.57533	33.15573	15.38446	12.43155	11.77492	8.40608	11.98156	17.80194	13.76264	15.00571	9.81252	12.90478	9.88286	25.16484	17.35645	7.99893
113870	7.04583	7.56906	8.20118	13.49096	12.35451	11.61806	7.20353	10.57578	9.15941	6.91272	14.97705	19.08435	9.19782	10.72002	7.03494	14.72909	15.90603	29.40222
114040	11.32161	11.82452	8.85471	25.85115	33.01327	26.94907	14.08238	10.33676	12.37701	31.70607	25.23014	18.72123	8.50889	10.98880	9.53867	12.49293	9.05006	6.34378
114200	8.90654	11.97420	10.96842	9.52424	4.92070	11.44643	11.76020	9.48314	8.38280	10.31201	9.11373	8.18422	8.99029	7.06888	7.50202	17.80389	12.94418	6.19296
114370	10.94782	9.94228	9.12649	6.55177	10.55713	11.78043	11.91697	10.64697	8.51470	20.50507	19.14895	17.25064	9.10282	9.88722	4.80744	25.67152	14.66548	14.04389
114530	6.24844	6.61984	8.21871	14.63893	12.99483	19.73367	11.55187	9.62722	14.38823	12.65864	9.40159	15.87524	10.15974	10.48221	11.41903	28.10083	32.80846	29.03991
114690	12.88185	11.92061	15.21490	39.17799	46.04262	47.78373	14.46428	14.75420	12.64089	36.29087	21.85999	27.62066	14.48717	12.63512	14.59126	29.87828	34.36994	19.73493
114860	11.10403	10.63232	9.82977	12.27936	17.84661	15.88336	12.07936	8.65995	7.38002	9.07403	8.81395	9.78330	7.41895	8.94098	7.44592	15.34592	14.91822	12.25241
115020	8.84454	7.53729	12.25484	9.11759	11.15613	27.71013	14.76723	15.89442	14.40973	14.74148	22.92950	18.69191	13.31455	15.69106	13.71174	39.10811	19.37321	14.24407	22.49	6.2	0.00	7.21	0.01280	0.01293	0.01695	0.00779	0.00581	0.00636	0.00470	0.01271	0.01695	0.00677	0.00687	0.00902	0.01496	0.01102	0.01203	0.00218	0.00618	0.00869
115190	11.35896	11.12773	11.22028	13.37376	14.87033	26.04208	13.91373	13.28693	9.98011	27.38037	14.34306	19.50992	10.50061	9.14952	12.16176	26.55575	9.24463	14.25884
115350	7.35164	5.61345	7.64784	9.67235	19.81854	10.82278	12.28927	11.95478	7.13421	9.92238	10.79170	13.36577	5.49669	9.28335	6.57635	12.31631	8.51051	8.63270
115520	7.66911	7.88862	8.44785	8.96536	11.38717	13.69602	12.46612	11.17570	11.28116	11.20714	18.19958	12.82503	9.28560	7.82143	10.20219	20.82853	14.16891	18.49977
115680	9.08765	11.15737	9.50079	19.51844	6.58647	14.05741	11.07033	11.61141	6.44336	8.70190	8.85984	17.50521	8.29062	12.73515	10.47240	9.75088	12.70683	14.95864
115840	9.74044	12.01913	12.55069	18.83292	32.29228	24.29989	14.84408	12.83635	12.91865	24.44779	21.23160	13.49809	12.98462	8.95268	7.71741	24.04686	27.34338	26.68235
116010	11.70283	11.98861	12.38897	11.44168	11.63046	20.35199	16.35850	15.15074	10.05731	7.61017	7.64804	6.07353	9.33302	9.33858	7.72894	8.02688	16.18303	19.56948
116170	10.03424	10.44828	10.17036	15.95812	9.62324	23.23491	13.30932	14.37081	12.77293	22.98982	17.64186	15.15927	12.29093	8.75053	10.80013	18.41552	24.64145	21.70730
116330	9.91708	10.07258	9.15658	8.06074	8.20177	9.24877	14.41602	14.89358	11.87113	9.00340	14.99409	12.48624	9.62683	7.81140	8.06986	19.97280	17.77968	4.15920
116500	9.87896	9.11798	11.43551	12.75152	8.21662	14.69032	12.54494	10.42582	13.06201	11.41673	9.23277	10.47126	9.05683	9.11759	10.58176	12.11443	13.00269	10.39958
116660	9.12771	11.53149	11.35144	13.92193	27.33855	28.76875	14.84111	12.81191	12.12707	32.22518	33.20952	29.19747	14.82012	9.15495	8.78915	53.70421	35.24923	16.31384	22.49	6.2	0.00	7.20	0.01280	0.01293	0.01695	0.00779	0.00581	0.00636	0.00470	0.01271	0.01695	0.00677	0.00687	0.00902	0.01496	0.01102	0.01203	0.00218	0.00618	0.00869
116830	9.54077	9.01116	9.34922	25.54059	17.05366	20.09016	9.30180	8.93922	9.57853	8.80008	6.93678	4.70447	8.59959	6.54859	10.00331	12.40974	15.88068	15.48651
116990	9.25528	9.78318	6.98863	27.61636	23.17629	26.21427	13.06497	9.46601	8.64359	35.01526	24.62097	24.21521	10.27108	9.83107	10.71276	29.41306	29.35621	21.47901
117160	9.96122	7.21635	7.07746	18.46262	19.77220	12.90396	11.92059	10.94197	8.88012	13.26659	8.47048	7.55253	6.84974	8.32195	8.50408	9.37973	5.97913	6.17779
117320	7.99471	9.25538	7.14968	7.85404	8.04830	11.52728	11.88888	9.69312	9.48638	21.85653	20.54603	16.32130	6.24875	6.60366	8.45257	14.18761	18.35000	32.22721
117480	10.68222	11.40796	6.63912	27.94155	14.56005	6.87653	11.77515	12.51845	12.60245	13.80034	6.06501	8.28898	4.57918	8.84899	7.62254	4.63449	4.16460	6.62433
117650	5.72308	5.29871	3.86141	5.23983	3.75466	6.66626	6.91746	6.02746	9.80644	4.02915	13.80213	11.68600	8.95672	7.31287	7.22700	12.39414	15.83729	16.62424
117810	9.40616	13.68105	10.76177	37.24791	29.51505	20.57469	11.66980	9.98222	7.07540	18.48944	31.17014	14.28397	8.13695	11.46102	12.20664	17.49797	18.29037	22.40742
117980	11.20148	9.88528	10.92195	14.44167	8.06629	6.76149	12.05554	10.70977	9.71331	4.78211	3.92043	5.35256	11.11095	9.54565	7.83580	6.13098	5.74965	9.07972
118140	8.79477	8.01336	5.67186	9.79370	4.57878	4.90076	10.20977	7.70413	15.06757	5.34899	10.22940	16.36844	13.70292	11.90121	12.27272	22.88129	20.95706	13.41845
118310	10.07088	11.36510	15.63947	18.73396	17.44898	18.68411	17.39234	14.08586	12.91744	39.92754	25.72802	18.46010	10.68081	9.58594	11.31577	17.98502	23.82197	21.79281	22.49	6.2	0.00	7.32	0.01280	0.01293	0.01695	0.00779	0.00581	0.00636	0.00470	0.01271	0.01695	0.00677	0.00687	0.00902	0.01496	0.01102	0.01203	0.00218	0.00618	0.00870
118470	10.83658	9.85483	11.23893	12.50332	30.27824	21.74040	9.21827	11.85521	12.27738	24.12480	17.87824	15.39225	8.49468	7.64237	6.94969	8.47694	9.77216	6.30807
118640	10.32512	10.04923	6.90954	7.67688	5.81656	3.75170	12.72804	10.37026	9.73971	7.92715	9.07744	3.65665	7.76615	5.19009	6.21664	6.74136	5.06888	10.00573
118800	4.27104	5.42770	5.51403	6.05268	11.45744	11.05999	13.41103	10.93316	11.52671	10.48799	10.71406	9.64963	9.75573	10.00269	11.42536	11.75553	8.82621	10.74151
118970	10.91916	6.95658	9.38014	11.16138	7.49218	7.27027	13.21534	9.32393	8.55913	7.17969	5.64665	7.10484	7.92051	9.77667	9.93189	21.49908	10.92740	9.36384
119130	7.69000	9.79555	10.61464	30.12617	15.15823	33.55929	11.77700	8.22115	10.64532	15.35629	16.68482	8.86192	9.53935	10.45542	8.98714	15.30000	5.15388	6.10031
119290	7.56850	8.75819	6.55609	11.90789	7.81411	15.76543	11.11973	10.24284	11.77773	14.10633	19.27708	16.19148	9.97111	11.84739	13.30660	23.52564	12.80430	10.28528
119460	11.15503	8.85177	10.93155	17.60553	24.14380	22.41733	13.38248	12.58073	11.34946	23.06035	10.31154	14.23869	13.01780	12.76283	13.55270	13.54800	17.01323	14.29906
119620	11.13646	7.99088	8.77687	8.93254	7.16977	4.99325	14.72863	12.27948	8.03934	10.17775	17.82509	12.52639	9.87147	9.19674	12.70917	25.41816	20.76635	22.42775
119790	12.04666	12.69576	9.80193	37.23235	47.47353	21.88252	17.12846	16.31082	15.37084	22.05309	27.12235	20.88113	13.84104	13.76465	11.14464	17.96993	17.81295	22.58096
119950	10.29384	14.30176	13.68665	23.12873	21.38550	24.08301	12.01771	12.24020	10.05614	23.52134	26.64081	17.20324	14.07606	13.33665	12.69072	45.02626	35.02617	38.31089	22.49	6.0	0.00	7.57	0.01280	0.01293	0.01695	0.00779	0.00581	0.00636	0.00470	0.01271	0.01695	0.00677	0.00686	0.00902	0.01496	0.01102	0.01203	0.00218	0.00618	0.00869
120110	14.11192	11.78051	10.38429	17.30155	30.30312	33.89501	17.65176	14.58823	11.93613	26.86329	30.85835	26.38259	13.44137	15.97615	13.87876	17.57804	13.41004	16.50499
120280	9.20708	8.22035	9.77426	24.94737	18.63991	17.45109	7.63560	5.03264	7.40240	24.52561	23.11293	31.56294	9.98505	12.05582	13.06754	26.98973	45.89751	25.34606
120440	12.03859	16.08918	11.08128	54.77447	28.07743	38.86142	16.35480	12.84765	11.76582	28.13535	22.25093	22.47154	8.37902	11.25375	11.10511	11.62401	15.29614	21.68576
120600	12.40605	14.05404	10.30283	11.97302	22.60398	16.49529	15.36069	12.47524	10.45567	14.34261	6.49262	12.68407	12.37912	11.66277	10.65241	13.52873	9.45608	17.06791
120770	9.44390	10.47365	12.00490	22.32548	17.66504	41.29292	18.02081	12.78010	13.53823	34.89211	31.69189	28.52012	15.04403	12.84410	13.14203	34.66480	35.31590	26.47276
120930	12.83745	13.99348	13.42770	22.46900	19.72566	12.76355	17.03848	13.02946	11.78116	16.84743	25.06871	19.39877	11.37362	6.41713	9.97020	15.73272	12.13933	7.32086
121090	10.30340	7.78968	6.99788	20.57946	16.71377	20.56567	13.60061	16.01730	12.26514	19.22937	16.45231	22.32954	13.10055	13.38645	13.06935	27.40396	13.06336	16.64744
121260	10.14806	7.58373	14.08445	6.89882	9.00032	16.40654	13.98031	12.67092	10.80081	15.83355	14.91404	16.72707	10.79725	12.75944	9.74281	19.61181	22.23918	20.21534
121420	7.27341	8.86892	8.87095	18.06661	11.54559	7.98801	8.26844	10.39873	10.03390	17.62035	18.80036	12.31873	6.74969	7.96723	7.90039	12.66204	11.07082	19.79360
