WetView ver 7.1	07-17-2019	10:41:31
AC9 Absorption and Attenuation Meter
00000311		; Serial number
2	; structure version number
Reserved
0.000000	0.000000		; Depth calibration
19200			; Baud rate
0.100000			; Path length (meters)
23			; number of temperature calibration bins
				12.61517	13.44096	14.46844	15.49904	16.50682	17.50108	18.49752	19.51783	20.49177	21.49009	22.48286	23.50673	24.54012	25.54812	26.49986	27.49321	28.50960	29.48671	30.47471	31.49432	32.50437	33.48679	34.49133	; temperature bins
a650	Blue	18.61587		0.01156	0.01096	0.01010	0.00930	0.00851	0.00774	0.00661	0.00573	0.00499	0.00402	0.00285	0.00203	0.00096	0.00000	-0.00110	-0.00152	-0.00210	-0.00247	-0.00259	-0.00317	-0.00346	-0.00380	-0.00403		; offset and temperature correction info
a676	Green	18.78942		0.00964	0.00899	0.00863	0.00813	0.00730	0.00639	0.00545	0.00448	0.00385	0.00301	0.00233	0.00165	0.00046	0.00000	-0.00106	-0.00167	-0.00251	-0.00280	-0.00316	-0.00329	-0.00377	-0.00392	-0.00441		; offset and temperature correction info
a715	Brown	18.59217		0.01171	0.01109	0.01043	0.00975	0.00878	0.00789	0.00685	0.00572	0.00469	0.00356	0.00255	0.00160	0.00061	0.00000	-0.00063	-0.00113	-0.00152	-0.00183	-0.00226	-0.00293	-0.00364	-0.00404	-0.00473		; offset and temperature correction info
c510	Red	18.18396		-0.00549	-0.00480	-0.00383	-0.00272	-0.00202	-0.00118	-0.00044	-0.00038	-0.00015	-0.00021	0.00013	0.00007	-0.00007	0.00000	-0.00007	-0.00065	-0.00045	-0.00018	0.00007	0.00039	-0.00001	-0.00002	-0.00045		; offset and temperature correction info
c532	Magenta	18.26528		-0.00721	-0.00645	-0.00581	-0.00518	-0.00465	-0.00345	-0.00281	-0.00270	-0.00182	-0.00141	-0.00108	-0.00072	-0.00022	0.00000	0.00044	0.00030	0.00031	-0.00006	-0.00052	-0.00089	-0.00142	-0.00149	-0.00154		; offset and temperature correction info
c555	Black	18.37125		-0.00430	-0.00419	-0.00381	-0.00319	-0.00286	-0.00254	-0.00205	-0.00196	-0.00138	-0.00137	-0.00067	-0.00051	-0.00030	0.00000	0.00067	0.00087	0.00057	0.00027	-0.00015	-0.00089	-0.00127	-0.00137	-0.00150		; offset and temperature correction info
a412	LtBlue	15.33566		-0.06011	-0.05567	-0.05012	-0.04441	-0.03922	-0.03412	-0.02941	-0.02503	-0.02049	-0.01588	-0.01121	-0.00784	-0.00311	0.00000	0.00273	0.00611	0.00757	0.00871	0.01066	0.01299	0.01539	0.01781	0.02175		; offset and temperature correction info
a440	LtGreen	16.05925		-0.01380	-0.01214	-0.01039	-0.00858	-0.00690	-0.00532	-0.00426	-0.00322	-0.00230	-0.00158	-0.00055	0.00006	0.00001	0.00000	0.00017	0.00016	-0.00094	-0.00222	-0.00363	-0.00486	-0.00567	-0.00651	-0.00782		; offset and temperature correction info
a488	Yellow	16.82827		0.00255	0.00293	0.00331	0.00354	0.00373	0.00378	0.00363	0.00350	0.00291	0.00225	0.00215	0.00142	0.00099	0.00000	-0.00092	-0.00169	-0.00295	-0.00396	-0.00479	-0.00542	-0.00582	-0.00604	-0.00663		; offset and temperature correction info
c650	Blue	18.49287		-0.00570	-0.00516	-0.00456	-0.00403	-0.00346	-0.00232	-0.00132	-0.00122	-0.00073	-0.00066	-0.00035	-0.00016	0.00003	0.00000	0.00044	0.00078	0.00108	0.00057	0.00040	-0.00042	-0.00033	-0.00029	-0.00034		; offset and temperature correction info
c676	Green	18.50570		0.00299	0.00293	0.00287	0.00293	0.00278	0.00294	0.00317	0.00251	0.00243	0.00215	0.00139	0.00123	0.00068	0.00000	-0.00041	-0.00106	-0.00205	-0.00268	-0.00325	-0.00413	-0.00495	-0.00610	-0.00674		; offset and temperature correction info
c715	Brown	17.88888		0.00826	0.00812	0.00773	0.00790	0.00766	0.00758	0.00753	0.00650	0.00571	0.00461	0.00359	0.00222	0.00101	0.00000	-0.00146	-0.00284	-0.00385	-0.00448	-0.00463	-0.00513	-0.00623	-0.00715	-0.00838		; offset and temperature correction info
a510	Red	17.18050		0.00353	0.00364	0.00354	0.00361	0.00381	0.00381	0.00356	0.00332	0.00277	0.00229	0.00176	0.00116	0.00036	0.00000	-0.00014	-0.00069	-0.00088	-0.00147	-0.00150	-0.00129	-0.00120	-0.00134	-0.00091		; offset and temperature correction info
a532	Magenta	17.40228		0.00550	0.00548	0.00526	0.00479	0.00464	0.00422	0.00393	0.00328	0.00253	0.00212	0.00136	0.00085	0.00039	0.00000	-0.00059	-0.00146	-0.00188	-0.00262	-0.00330	-0.00393	-0.00491	-0.00540	-0.00605		; offset and temperature correction info
a555	Black	17.72308		0.00849	0.00832	0.00800	0.00760	0.00724	0.00655	0.00580	0.00495	0.00435	0.00347	0.00252	0.00153	0.00049	0.00000	-0.00050	-0.00155	-0.00214	-0.00306	-0.00350	-0.00411	-0.00470	-0.00539	-0.00570		; offset and temperature correction info
c412	LtBlue	16.72802		-0.05949	-0.05458	-0.04744	-0.04134	-0.03547	-0.03064	-0.02511	-0.02047	-0.01574	-0.01163	-0.00761	-0.00442	-0.00204	0.00000	0.00100	0.00051	-0.00043	-0.00239	-0.00475	-0.00629	-0.00827	-0.00955	-0.01337		; offset and temperature correction info
c440	LtGreen	17.42637		-0.02723	-0.02503	-0.02216	-0.01930	-0.01691	-0.01394	-0.01125	-0.00926	-0.00732	-0.00582	-0.00401	-0.00226	-0.00093	0.00000	0.00082	0.00123	0.00133	0.00097	0.00038	-0.00003	-0.00022	-0.00023	-0.00125		; offset and temperature correction info
c488	Yellow	18.03666		-0.00640	-0.00554	-0.00465	-0.00357	-0.00276	-0.00154	-0.00067	-0.00031	-0.00014	-0.00012	0.00046	0.00032	0.00020	0.00000	0.00001	-0.00024	-0.00060	-0.00084	-0.00126	-0.00180	-0.00276	-0.00304	-0.00427		; offset and temperature correction info
0.003500	0.004000	0.015000	0.020000	0.015000	0.020000	2500.000000	2000.000000	1000.000000	; maxANoise	maxCNoise	maxADifference	maxCDifference	minACounts	minCCounts	minRCounts	maxTempSdev	maxDepthSdev
0			; auxilliary capabilities
1			; acquisition binsize
0	2.59957	2.84062	2.15767	17.17332	16.34227	15.55712	8.78758	6.67958	4.56891	13.08731	12.93715	12.11961	3.96898	3.47626	3.10153	22.62811	20.36089	18.01233	34.34	6.3	0.00	-2.04	0.01731	0.01199	0.01518	0.01827	0.01890	0.01478	0.00546	0.01513	0.02004	0.01858	0.01286	0.01639	0.01705	0.01762	0.01377	0.00575	0.01615	0.02149
160	2.57986	2.85422	2.19428	17.15965	16.32904	15.54022	8.92413	6.82953	4.70953	13.07535	12.90195	12.09068	4.09496	3.56853	3.16948	22.59512	20.33322	17.99528
320	2.59150	2.83433	2.14787	17.17011	16.33793	15.55661	8.76771	6.66634	4.56067	13.08238	12.93171	12.11208	3.96005	3.47018	3.09426	22.62568	20.34898	17.99887
470	2.58556	2.86449	2.20581	17.15085	16.32136	15.53259	8.94669	6.83585	4.70355	13.06310	12.89471	12.08264	4.07994	3.54705	3.14511	22.58006	20.31872	17.98778
640	2.56642	2.81303	2.13159	17.16318	16.33767	15.55819	8.75625	6.66631	4.57587	13.08324	12.91674	12.09764	4.00491	3.52272	3.15362	22.59512	20.32676	17.98270
790	2.63009	2.88277	2.20372	17.14376	16.31697	15.53195	8.87625	6.76454	4.63773	13.06556	12.89851	12.08460	4.02161	3.50213	3.11383	22.58861	20.32750	17.98929
950	2.56462	2.81942	2.14536	17.15517	16.32136	15.54043	8.80135	6.70476	4.59946	13.06587	12.90044	12.08547	4.00723	3.50342	3.11873	22.58842	20.32405	17.98571
1110	2.57480	2.82916	2.15302	17.14573	16.31705	15.53314	8.80300	6.71110	4.59977	13.06026	12.89101	12.07842	4.00347	3.49513	3.10573	22.57913	20.31429	17.97647
1270	2.56280	2.81424	2.14190	17.14303	16.31254	15.52643	8.79327	6.68937	4.58358	13.05818	12.89093	12.07752	3.98661	3.48648	3.10317	22.57449	20.31321	17.97532
1430	2.56382	2.82264	2.15066	17.14129	16.31456	15.52758	8.80898	6.71764	4.60844	13.05993	12.89014	12.07667	4.01268	3.50879	3.12264	22.56335	20.30868	17.97355
1600	2.57819	2.83543	2.15707	17.13376	16.30960	15.52328	8.81068	6.71511	4.60728	13.05770	12.88998	12.07594	4.01004	3.50845	3.12101	22.57521	20.31273	17.97532	34.34	6.0	0.00	-2.04	0.01732	0.01200	0.01519	0.01827	0.01890	0.01477	0.00546	0.01514	0.02006	0.01858	0.01286	0.01639	0.01706	0.01763	0.01377	0.00575	0.01615	0.02149
1760	2.57609	2.83479	2.15978	17.14155	16.31261	15.52735	8.82150	6.72651	4.61688	13.06260	12.89315	12.07694	4.01342	3.51125	3.12498	22.57855	20.30707	17.97020
1920	2.57806	2.83317	2.15742	17.13541	16.30838	15.52538	8.83057	6.72373	4.61540	13.06058	12.88832	12.07689	4.01167	3.50778	3.12168	22.56815	20.30579	17.96778
2090	2.57335	2.83148	2.15992	17.13444	16.30809	15.52365	8.82880	6.71931	4.61336	13.05729	12.88436	12.07234	4.00956	3.50827	3.11979	22.57539	20.30224	17.96634
2250	2.57313	2.83239	2.15861	17.13280	16.30667	15.52556	8.83582	6.72699	4.61719	13.06165	12.88744	12.07582	4.01242	3.50935	3.12547	22.57409	20.30731	17.97097
2420	2.57746	2.83526	2.15938	17.13388	16.30389	15.52216	8.82766	6.72379	4.61359	13.05861	12.88457	12.07180	4.01223	3.51184	3.12427	22.56964	20.31145	17.97182
2580	2.57837	2.83654	2.16104	17.13347	16.30991	15.52419	8.81518	6.72307	4.61313	13.05941	12.88282	12.07393	4.01181	3.50838	3.12153	22.56685	20.30795	17.96783
2750	2.57597	2.83573	2.16159	17.13591	16.30980	15.52489	8.82920	6.72483	4.61977	13.06137	12.88451	12.07399	4.01220	3.51083	3.12393	22.57669	20.30800	17.97127
2910	2.57517	2.83257	2.16005	17.13100	16.30293	15.52216	8.82652	6.72107	4.61476	13.05572	12.88116	12.06863	4.01080	3.50943	3.12201	22.58655	20.30830	17.96830
3080	2.57749	2.83351	2.16073	17.12810	16.30089	15.52137	8.82561	6.72631	4.61487	13.05447	12.87897	12.06869	4.00985	3.50704	3.12038	22.56370	20.30357	17.96522
3240	2.58318	2.84098	2.16521	17.12540	16.29735	15.51844	8.82556	6.73213	4.62026	13.05485	12.87943	12.06884	4.01836	3.51436	3.12439	22.57966	20.30474	17.96594	34.34	6.2	0.00	-2.04	0.01733	0.01201	0.01519	0.01826	0.01890	0.01477	0.00547	0.01515	0.02007	0.01858	0.01286	0.01639	0.01707	0.01764	0.01378	0.00575	0.01614	0.02148
3410	2.57961	2.83777	2.16023	17.12596	16.29683	15.51665	8.82021	6.73007	4.61813	13.05487	12.87637	12.06752	4.01499	3.51415	3.12625	22.57259	20.31109	17.97018
3570	2.58280	2.83759	2.16252	17.12705	16.30186	15.51966	8.83651	6.72958	4.62109	13.05694	12.87848	12.07055	4.01564	3.51146	3.12280	22.56108	20.31380	17.96936
3730	2.58201	2.83670	2.16420	17.12928	16.30235	15.52318	8.82739	6.72913	4.61823	13.05608	12.87972	12.06895	4.01571	3.51355	3.12296	22.57352	20.30829	17.96630
3900	2.58122	2.83489	2.16426	17.12361	16.29751	15.51865	8.83719	6.72480	4.61960	13.05433	12.87705	12.06592	4.01596	3.51209	3.12686	22.59287	20.30888	17.96660
4070	2.58118	2.83794	2.16424	17.12217	16.29927	15.51693	8.82619	6.72539	4.61947	13.05412	12.87560	12.06468	4.01415	3.51221	3.12351	22.57315	20.30459	17.96401
4230	2.58270	2.84202	2.16726	17.12796	16.30103	15.52038	8.83001	6.73440	4.62391	13.05517	12.87795	12.06787	4.01476	3.51472	3.12806	22.59287	20.31144	17.96881
4390	2.58417	2.83712	2.16323	17.12300	16.29751	15.51608	8.82904	6.72744	4.61792	13.05198	12.87344	12.06480	4.01141	3.51189	3.12461	22.56944	20.30523	17.96545
4560	2.58033	2.83239	2.16284	17.11575	16.28956	15.51180	8.82961	6.72309	4.61686	13.05010	12.87020	12.06020	4.01337	3.50917	3.12471	22.56739	20.30179	17.96052
4730	2.58154	2.83900	2.16343	17.11818	16.29215	15.51077	8.82779	6.72772	4.61883	13.04640	12.87012	12.05620	4.01286	3.51396	3.12786	22.57352	20.30361	17.96074
4890	2.58781	2.84246	2.16958	17.11619	16.29112	15.50924	8.83933	6.73531	4.62535	13.04584	12.86992	12.05889	4.01342	3.51668	3.12924	22.56210	20.30297	17.95499	34.28	6.1	0.00	-2.04	0.01734	0.01201	0.01520	0.01826	0.01889	0.01477	0.00547	0.01516	0.02008	0.01857	0.01286	0.01639	0.01708	0.01765	0.01379	0.00575	0.01614	0.02148
5060	2.58564	2.84117	2.16736	17.11657	16.28975	15.50803	8.82508	6.73139	4.62424	13.04496	12.86860	12.05812	4.01674	3.51550	3.12717	22.55468	20.28959	17.95350
5220	2.58582	2.84056	2.16848	17.11498	16.29112	15.51094	8.82554	6.73618	4.62230	13.04546	12.86966	12.05786	4.01880	3.51591	3.12720	22.56192	20.29446	17.95562
5390	2.58549	2.84175	2.16639	17.11639	16.29107	15.50754	8.83448	6.73125	4.62464	13.04321	12.86863	12.05709	4.01872	3.51775	3.13309	22.55895	20.30189	17.95884
5550	2.58689	2.84334	2.16955	17.12000	16.29638	15.50766	8.82491	6.73518	4.62563	13.04517	12.87169	12.05936	4.01924	3.51850	3.12962	22.56266	20.29549	17.95639
5720	2.58418	2.83833	2.16575	17.11830	16.29239	15.50476	8.82690	6.73443	4.62555	13.04050	12.86721	12.05498	4.01625	3.51365	3.12701	22.55617	20.29023	17.94984
5880	2.58399	2.83952	2.16956	17.11980	16.29589	15.50582	8.83163	6.73222	4.62501	13.04425	12.86900	12.05918	4.01902	3.51600	3.13154	22.56619	20.29613	17.95125
6050	2.58629	2.84430	2.17023	17.11874	16.29294	15.50276	8.83072	6.73544	4.62409	13.04146	12.86681	12.05589	4.01618	3.51501	3.12617	22.56136	20.29692	17.95232
6210	2.58128	2.83853	2.16513	17.11959	16.29431	15.50376	8.82981	6.73429	4.62433	13.03693	12.86338	12.05214	4.02027	3.52069	3.13072	22.55932	20.29082	17.95259
6380	2.58791	2.84138	2.16607	17.12156	16.29444	15.50518	8.83665	6.73269	4.62505	13.04143	12.86876	12.05595	4.01622	3.51480	3.13023	22.56210	20.29008	17.94946
6540	2.58996	2.84611	2.17147	17.11815	16.29396	15.50448	8.84443	6.74238	4.62983	13.04014	12.87042	12.05565	4.02444	3.52042	3.13258	22.56570	20.28819	17.94996	34.34	6.2	0.00	-2.04	0.01734	0.01201	0.01520	0.01826	0.01889	0.01477	0.00547	0.01516	0.02008	0.01857	0.01286	0.01639	0.01708	0.01765	0.01379	0.00575	0.01614	0.02148
6710	2.58962	2.84570	2.16891	17.11372	16.28751	15.50097	8.83816	6.73493	4.62625	13.03486	12.86494	12.05105	4.02366	3.52117	3.13465	22.54196	20.28814	17.95290
6870	2.59116	2.84415	2.17128	17.11636	16.28925	15.50278	8.84517	6.74093	4.63156	13.03655	12.86910	12.05386	4.02281	3.51736	3.13050	22.56849	20.28519	17.94630
7040	2.58671	2.84347	2.17140	17.11214	16.28415	15.49912	8.84517	6.74249	4.62786	13.03374	12.86486	12.05060	4.02100	3.51855	3.13061	22.54863	20.28185	17.94479
7200	2.58907	2.84427	2.16942	17.11469	16.28358	15.50172	8.83069	6.73697	4.62765	13.03508	12.86736	12.05135	4.02074	3.51646	3.13075	22.55030	20.27610	17.94045
7370	2.58556	2.84268	2.16853	17.10701	16.28177	15.49670	8.83081	6.73568	4.62729	13.03032	12.86655	12.05139	4.02052	3.51488	3.12971	22.54770	20.27453	17.93935
7530	2.58502	2.84108	2.16861	17.10487	16.27763	15.49536	8.82944	6.73041	4.62655	13.02640	12.86122	12.04697	4.02039	3.51651	3.12998	22.52455	20.26786	17.93542
7700	2.58751	2.84481	2.16853	17.10147	16.27523	15.49273	8.83337	6.73460	4.62749	13.02559	12.85840	12.04600	4.02049	3.51786	3.13069	22.52622	20.26187	17.93026
7860	2.58670	2.84124	2.17065	17.09549	16.27101	15.49122	8.83599	6.73986	4.62889	13.02464	12.85790	12.04430	4.02034	3.51798	3.13357	22.52659	20.25496	17.92861
8030	2.58784	2.84204	2.16827	17.09523	16.26584	15.48511	8.82739	6.73440	4.62274	13.01810	12.85177	12.04112	4.01792	3.51687	3.13030	22.52603	20.25334	17.92416
8190	2.58582	2.84110	2.16896	17.09137	16.26272	15.48027	8.82287	6.73827	4.62428	13.01618	12.84876	12.03750	4.01865	3.51765	3.13089	22.51971	20.24681	17.91864	34.34	6.1	0.00	-2.04	0.01734	0.01201	0.01520	0.01825	0.01889	0.01477	0.00547	0.01517	0.02009	0.01857	0.01286	0.01639	0.01708	0.01765	0.01379	0.00575	0.01613	0.02147
8360	2.58687	2.84692	2.16920	17.08777	16.26318	15.48045	8.83254	6.73954	4.62628	13.01607	12.85066	12.03728	4.01888	3.51791	3.13084	22.51602	20.24426	17.91198
8520	2.58869	2.84760	2.17217	17.08785	16.26117	15.47927	8.82969	6.74130	4.63071	13.01570	12.85177	12.03823	4.02274	3.51852	3.13070	22.52415	20.24666	17.91634
8690	2.58604	2.84446	2.17051	17.08712	16.26081	15.47553	8.83590	6.73779	4.62793	13.01382	12.84566	12.03487	4.01834	3.51738	3.13029	22.51620	20.23912	17.91036
8850	2.58517	2.83949	2.16862	17.08385	16.25533	15.47124	8.82821	6.73652	4.62494	13.01071	12.84511	12.03121	4.02004	3.51528	3.12674	22.50456	20.23790	17.90888
9020	2.58145	2.83291	2.16044	17.08233	16.25856	15.47039	8.76965	6.71403	4.61163	13.01032	12.84348	12.03180	4.00475	3.50517	3.11329	22.49774	20.23350	17.90579
9180	2.58031	2.83104	2.16348	17.08455	16.26031	15.47492	8.77848	6.72289	4.61522	13.01442	12.84998	12.03368	4.00815	3.50740	3.11705	22.51953	20.23775	17.90973
9350	2.57595	2.82753	2.15789	17.08209	16.25358	15.46707	8.77474	6.71443	4.61467	13.01011	12.84377	12.03382	4.00844	3.50633	3.11866	22.50530	20.23834	17.90891
9510	2.57754	2.83241	2.16031	17.08136	16.25631	15.46949	8.78335	6.72117	4.61747	13.01234	12.84292	12.03056	4.01205	3.50870	3.12232	22.49866	20.22939	17.90352
9680	2.58270	2.83729	2.16475	17.07677	16.24814	15.46659	8.80025	6.72485	4.61808	13.01041	12.84124	12.03226	4.01581	3.51082	3.12529	22.50198	20.23320	17.90765
9840	2.58270	2.83922	2.16643	17.07943	16.25146	15.47190	8.83479	6.74181	4.63294	13.01184	12.84168	12.03089	4.02835	3.52060	3.12996	22.50550	20.23221	17.90105	34.34	6.1	0.00	-2.04	0.01734	0.01202	0.01520	0.01825	0.01889	0.01477	0.00548	0.01517	0.02009	0.01857	0.01286	0.01639	0.01709	0.01766	0.01379	0.00574	0.01613	0.02147
10010	2.58487	2.83919	2.16635	17.07370	16.24215	15.46378	8.81442	6.72737	4.62270	13.00724	12.83582	12.02611	4.01733	3.51230	3.12547	22.49885	20.23177	17.89741
10170	2.58488	2.84061	2.16728	17.06748	16.23872	15.46100	8.81204	6.73565	4.62382	13.00492	12.83261	12.02383	4.02276	3.52205	3.13737	22.50716	20.22883	17.89886
10340	2.59387	2.85235	2.17754	17.07093	16.23998	15.46471	8.88240	6.75687	4.63804	13.00774	12.83564	12.02581	4.03268	3.52650	3.14079	22.51788	20.22839	17.89656
10500	2.59199	2.85386	2.17575	17.06561	16.23712	15.45720	8.86953	6.74874	4.63387	13.00464	12.83030	12.02342	4.02761	3.52330	3.13858	22.48982	20.22048	17.88969
10670	2.59339	2.85237	2.17659	17.06173	16.23470	15.45642	8.86108	6.74613	4.63272	13.00259	12.82886	12.02227	4.02304	3.52126	3.13479	22.48650	20.21955	17.88849
10830	2.59024	2.84685	2.17489	17.06167	16.23396	15.45431	8.87067	6.74990	4.63536	13.00184	12.82739	12.02071	4.02757	3.52422	3.13755	22.48668	20.21203	17.88267
11000	2.59183	2.85299	2.17515	17.05534	16.23040	15.45030	8.88394	6.74890	4.63426	12.99932	12.82605	12.01728	4.02686	3.52207	3.13554	22.48668	20.20788	17.88114
11160	2.59052	2.84904	2.17439	17.05382	16.22865	15.45226	8.87267	6.74811	4.63512	12.99853	12.82573	12.01894	4.02653	3.52293	3.13831	22.48042	20.20852	17.87904
11330	2.59120	2.85149	2.17482	17.04761	16.22595	15.44515	8.87170	6.74372	4.62899	12.99434	12.82145	12.01681	4.02651	3.52430	3.13868	22.48263	20.21125	17.88229
11490	2.59332	2.85073	2.17545	17.05053	16.22665	15.44678	8.86164	6.74792	4.63199	12.99819	12.82296	12.01671	4.02459	3.52109	3.13520	22.48015	20.20220	17.87521	34.34	6.1	0.00	-2.04	0.01734	0.01202	0.01520	0.01825	0.01889	0.01477	0.00548	0.01517	0.02009	0.01857	0.01286	0.01639	0.01709	0.01766	0.01379	0.00574	0.01613	0.02147
11660	2.59001	2.84923	2.17515	17.04371	16.22163	15.44236	8.85976	6.74399	4.63140	12.99595	12.82446	12.01426	4.02762	3.52062	3.13813	22.46856	20.19523	17.87030
11820	2.58929	2.84804	2.17391	17.04796	16.22125	15.44609	8.86553	6.74700	4.63478	12.99673	12.82646	12.01873	4.02801	3.52095	3.13798	22.47463	20.20147	17.87407
11990	2.58864	2.84556	2.17290	17.04563	16.22068	15.44239	8.86050	6.74659	4.63275	12.99354	12.81979	12.01309	4.02985	3.52471	3.14014	22.45955	20.19874	17.87243
12150	2.59081	2.84827	2.17490	17.04461	16.22083	15.44052	8.86296	6.74418	4.63390	12.99432	12.82089	12.01572	4.02357	3.52115	3.13433	22.46451	20.19533	17.86959
12320	2.58820	2.84596	2.17274	17.03887	16.21729	15.44097	8.84453	6.74452	4.63249	12.99262	12.82002	12.01420	4.02633	3.52149	3.13681	22.44669	20.19206	17.86806
12480	2.59068	2.84810	2.17170	17.03960	16.21777	15.43907	8.85200	6.74440	4.63101	12.99408	12.81974	12.01439	4.02697	3.52174	3.13280	22.44981	20.18705	17.86490
12650	2.58846	2.84557	2.17327	17.03643	16.21741	15.44001	8.84829	6.74613	4.63275	12.99289	12.81932	12.01392	4.02383	3.52121	3.13385	22.45238	20.18846	17.86122
12810	2.58907	2.84508	2.17373	17.03651	16.21546	15.43537	8.84772	6.73546	4.62912	12.99102	12.82013	12.01222	4.02479	3.51972	3.13249	22.45881	20.18977	17.86883
12980	2.58831	2.84477	2.17119	17.04374	16.22217	15.43938	8.84955	6.74240	4.63239	12.99326	12.82231	12.01624	4.01951	3.51647	3.13358	22.46120	20.18968	17.86673
13140	2.58780	2.84533	2.17385	17.04229	16.22336	15.44351	8.85723	6.74465	4.63357	12.99683	12.82178	12.01778	4.02407	3.52128	3.13217	22.44946	20.19292	17.86595	34.34	6.1	0.00	-2.04	0.01735	0.01202	0.01521	0.01825	0.01889	0.01477	0.00548	0.01518	0.02010	0.01857	0.01286	0.01638	0.01709	0.01766	0.01379	0.00574	0.01613	0.02147
13310	2.58790	2.84284	2.17133	17.04512	16.21901	15.44176	8.84013	6.73960	4.63010	12.99594	12.82325	12.01904	4.02456	3.52139	3.13702	22.45975	20.18381	17.86303
13470	2.58971	2.84719	2.17205	17.03955	16.21799	15.43806	8.84366	6.73620	4.62113	12.99220	12.82370	12.01631	4.01241	3.50476	3.12227	22.45901	20.19175	17.86709
13640	2.58328	2.84175	2.16976	17.04617	16.22642	15.44342	8.84890	6.73638	4.62751	12.99635	12.82546	12.01946	4.01833	3.51708	3.12957	22.47097	20.19122	17.86917
13800	2.58462	2.84130	2.17032	17.04611	16.22321	15.44086	8.83973	6.73991	4.62836	12.99283	12.82299	12.01629	4.01995	3.51896	3.13273	22.45736	20.19390	17.87266
13960	2.58637	2.84580	2.17250	17.05083	16.22611	15.44318	8.84674	6.74793	4.63570	12.99433	12.82265	12.01508	4.02607	3.53241	3.13542	22.47428	20.21424	17.87692
14130	2.58720	2.83854	2.16748	17.05063	16.22449	15.44652	8.82925	6.73685	4.62059	12.99224	12.82519	12.01817	4.01086	3.50497	3.11634	22.46637	20.19541	17.86892
14300	2.57225	2.82912	2.15842	17.04748	16.22380	15.43812	8.83438	6.72834	4.61728	12.99068	12.82354	12.01693	4.01418	3.51580	3.13022	22.47981	20.20399	17.87960
14460	2.58462	2.84341	2.17007	17.05766	16.23327	15.45339	8.83813	6.73762	4.63136	13.00754	12.83276	12.03068	4.02565	3.52600	3.13982	22.47226	20.20594	17.88342
14630	2.59433	2.85111	2.17851	17.05734	16.23286	15.45565	8.84429	6.75296	4.64353	13.01446	12.83504	12.03317	4.03902	3.53294	3.14689	22.47520	20.20589	17.88263
14790	2.60468	2.85776	2.18471	17.05436	16.23632	15.45792	8.86228	6.75364	4.63490	13.01298	12.83433	12.03474	4.02266	3.51157	3.12533	22.49169	20.21455	17.88490	34.39	6.2	0.00	-2.04	0.01735	0.01202	0.01521	0.01825	0.01889	0.01476	0.00548	0.01518	0.02011	0.01857	0.01286	0.01638	0.01710	0.01767	0.01380	0.00574	0.01613	0.02147
14950	2.58054	2.83654	2.16682	17.05658	16.23354	15.45367	8.85031	6.74857	4.63526	13.00734	12.83157	12.03012	4.03269	3.52619	3.14257	22.47161	20.19864	17.87476
15120	2.59277	2.84730	2.17466	17.04652	16.22852	15.44876	8.85145	6.74665	4.63368	13.00736	12.83107	12.03069	4.03063	3.52955	3.14384	22.48893	20.21465	17.89037
15280	2.59459	2.84907	2.17116	17.06662	16.24433	15.46510	8.84171	6.73859	4.62291	13.01363	12.83935	12.03652	4.01366	3.50698	3.12094	22.49280	20.21728	17.89135
15440	2.57767	2.83071	2.16286	17.06595	16.23488	15.45668	8.82663	6.72653	4.61471	13.00226	12.83751	12.03219	4.00777	3.50389	3.11799	22.47916	20.20801	17.88471
15610	2.57597	2.83270	2.16217	17.06163	16.23495	15.45602	8.83095	6.72860	4.62097	13.00419	12.83531	12.03037	4.01208	3.51506	3.12980	22.49243	20.21318	17.88665
15770	2.58674	2.84423	2.17349	17.06548	16.24005	15.46085	8.84478	6.74784	4.63175	13.01108	12.83862	12.03130	4.02435	3.51565	3.12989	22.47750	20.21885	17.89236
15940	2.57889	2.83184	2.15891	17.06399	16.24013	15.45955	8.82112	6.71575	4.60257	13.01183	12.84795	12.04057	4.00197	3.49573	3.11083	22.48155	20.21763	17.89825
16100	2.56461	2.82274	2.15384	17.07611	16.25052	15.46954	8.80443	6.71201	4.60667	13.01641	12.85422	12.04428	4.00318	3.50466	3.11903	22.48266	20.21982	17.89625
16270	2.57700	2.83643	2.16254	17.06653	16.24160	15.46622	8.83454	6.72652	4.62224	13.01168	12.84117	12.03620	4.02188	3.52137	3.14018	22.49741	20.21885	17.89310
16430	2.59738	2.85517	2.18463	17.05669	16.23314	15.45757	8.85581	6.76366	4.64826	13.01249	12.83660	12.03472	4.04198	3.53228	3.14353	22.49334	20.21778	17.88983	34.39	6.2	0.00	-2.04	0.01736	0.01203	0.01522	0.01825	0.01888	0.01476	0.00548	0.01520	0.02012	0.01857	0.01285	0.01638	0.01711	0.01768	0.01381	0.00574	0.01612	0.02146
16590	2.58989	2.84141	2.16876	17.05818	16.23069	15.45890	8.83725	6.73356	4.62162	13.00648	12.83726	12.03043	4.01470	3.50611	3.11715	22.48633	20.20757	17.88362
16760	2.57062	2.82264	2.15256	17.05789	16.23414	15.45615	8.81050	6.70818	4.60211	13.00008	12.83931	12.03019	3.99562	3.49451	3.10989	22.46459	20.19816	17.87553
16920	2.57098	2.82683	2.15884	17.05944	16.23146	15.45338	8.81612	6.71897	4.61288	13.00027	12.83397	12.02521	4.00827	3.50772	3.12629	22.47822	20.19772	17.87873
17090	2.58438	2.84334	2.17116	17.04818	16.22250	15.45148	8.82946	6.73964	4.62803	13.00564	12.83224	12.02895	4.01918	3.51480	3.12696	22.47564	20.21255	17.88523
17250	2.57803	2.83418	2.16149	17.05585	16.22405	15.45344	8.82134	6.71974	4.61012	13.00225	12.83237	12.02691	4.00108	3.49410	3.10970	22.46625	20.20757	17.88285
17420	2.56423	2.82234	2.15267	17.05993	16.23406	15.45718	8.80761	6.70061	4.59236	13.00323	12.83694	12.03187	3.98634	3.48600	3.10013	22.46128	20.20191	17.88239
17590	2.56077	2.82200	2.15260	17.05054	16.22117	15.44922	8.79050	6.70662	4.60567	13.00342	12.82688	12.02294	4.00952	3.51346	3.13088	22.46422	20.20260	17.87720
17750	2.58868	2.84783	2.17685	17.04095	16.22088	15.44431	8.84174	6.74673	4.63126	13.00639	12.82856	12.02772	4.02200	3.51668	3.12754	22.47988	20.20421	17.87763
17910	2.57832	2.83313	2.16161	17.04229	16.21962	15.44741	8.82594	6.72285	4.61283	13.00079	12.82717	12.02187	4.00906	3.50168	3.11562	22.45429	20.19143	17.87269
18080	2.57564	2.83078	2.15866	17.03565	16.21108	15.44327	8.80331	6.71207	4.60281	12.99798	12.82899	12.02395	4.00125	3.50019	3.11673	22.46116	20.18922	17.87247	34.34	5.9	0.00	-2.04	0.01737	0.01203	0.01522	0.01824	0.01888	0.01476	0.00549	0.01520	0.02013	0.01856	0.01285	0.01638	0.01712	0.01769	0.01382	0.00574	0.01612	0.02146
18240	2.57636	2.83460	2.16490	17.03772	16.21236	15.43971	8.82679	6.72411	4.61600	12.99450	12.82416	12.02069	4.00611	3.50493	3.12270	22.44535	20.18015	17.86043
18410	2.57782	2.83557	2.16582	17.02878	16.20545	15.43366	8.82895	6.73028	4.61708	12.98842	12.81605	12.01425	4.00848	3.50187	3.11640	22.43525	20.17047	17.85601
18570	2.57352	2.83104	2.16107	17.02412	16.19831	15.42879	8.82213	6.72043	4.61274	12.98879	12.81340	12.01156	4.00696	3.50550	3.11718	22.43616	20.17582	17.86483
18740	2.57641	2.83252	2.16611	17.03359	16.21285	15.43432	8.82259	6.72563	4.63326	12.97298	12.80317	12.02640	4.02402	3.51731	3.13403	22.42809	20.17495	17.84740
18900	2.58406	2.84247	2.17181	17.01392	16.19584	15.42415	8.83093	6.73397	4.62875	12.98665	12.81167	12.01152	4.02241	3.51708	3.13237	22.42406	20.15885	17.83879
19070	2.58548	2.84195	2.17224	17.00924	16.19312	15.42139	8.83395	6.73690	4.62552	12.98715	12.81190	12.01138	4.02036	3.51786	3.13297	22.42589	20.15851	17.83762
19230	2.59034	2.84549	2.17497	17.00418	16.18891	15.42094	8.84674	6.74426	4.63194	12.98859	12.80907	12.01429	4.02485	3.52073	3.13047	22.42791	20.15287	17.83828
19400	2.58701	2.84179	2.17089	17.00264	16.18861	15.42006	8.83468	6.73898	4.62745	12.98781	12.80868	12.01196	4.02174	3.51675	3.13180	22.41361	20.15224	17.83496
19570	2.58943	2.84558	2.17817	17.00241	16.18940	15.41631	8.85801	6.75616	4.64547	12.98815	12.80309	12.00687	4.04047	3.54326	3.15999	22.41288	20.14598	17.83047
19740	2.60886	2.86464	2.19585	16.98994	16.17588	15.41232	8.88968	6.78468	4.66746	12.99131	12.80348	12.00856	4.06423	3.56433	3.17529	22.41424	20.14406	17.82670	34.39	6.0	0.00	-2.04	0.01736	0.01203	0.01522	0.01824	0.01888	0.01476	0.00548	0.01519	0.02011	0.01857	0.01285	0.01638	0.01710	0.01767	0.01381	0.00574	0.01612	0.02146
19900	2.62711	2.88471	2.21006	16.98576	16.17775	15.41157	8.91476	6.81235	4.69130	12.98766	12.79863	12.00533	4.08557	3.56920	3.17490	22.40527	20.13170	17.82156
20050	2.61553	2.86204	2.18885	16.99379	16.18203	15.41247	8.85622	6.74473	4.62834	12.98444	12.80796	12.00928	4.02496	3.50964	3.12364	22.40692	20.15148	17.83896
20210	2.57454	2.82709	2.15494	17.01842	16.19708	15.42477	8.79837	6.70608	4.59354	12.98235	12.81750	12.01120	3.98759	3.47961	3.09105	22.40637	20.16416	17.85070
20380	2.55133	2.81159	2.14272	17.02345	16.19713	15.42374	8.79463	6.69185	4.58676	12.98462	12.81889	12.01445	3.98164	3.48445	3.10198	22.44706	20.17048	17.84923
20550	2.56463	2.82614	2.16018	17.03029	16.20782	15.43126	8.80041	6.71356	4.61071	12.99547	12.82301	12.02074	4.01175	3.51300	3.13522	22.43641	20.16042	17.83695
20720	2.60022	2.86350	2.19271	16.99690	16.18292	15.40644	8.86872	6.79102	4.67810	12.98224	12.79444	12.00048	4.07782	3.57691	3.18919	22.40052	20.12928	17.81534
20890	2.63810	2.89352	2.21976	16.97270	16.16049	15.39639	8.92015	6.81018	4.69183	12.97748	12.78622	11.99667	4.08396	3.57348	3.18342	22.38462	20.12879	17.80896
21050	2.63350	2.88621	2.21133	16.96651	16.15602	15.39483	8.90708	6.80749	4.69204	12.97528	12.78251	11.99233	4.08785	3.58073	3.18997	22.38517	20.11273	17.80088
21210	2.63890	2.89409	2.22025	16.95700	16.14669	15.38443	8.90393	6.81402	4.69225	12.96767	12.77587	11.98649	4.08371	3.57493	3.18538	22.38955	20.10866	17.79448
21370	2.61931	2.87245	2.20443	16.95900	16.15233	15.38964	8.88121	6.79315	4.67839	12.96926	12.77725	11.98763	4.07106	3.56348	3.17299	22.39383	20.11287	17.80145	34.34	6.2	0.00	-2.04	0.01734	0.01201	0.01520	0.01826	0.01889	0.01477	0.00547	0.01516	0.02008	0.01858	0.01286	0.01639	0.01708	0.01765	0.01379	0.00575	0.01614	0.02148
21530	2.62081	2.87720	2.20375	16.95577	16.14725	15.38401	8.89479	6.78827	4.67494	12.96245	12.77660	11.98328	4.06771	3.56349	3.17272	22.38654	20.11031	17.79698
21700	2.61980	2.87791	2.20836	16.95337	16.14893	15.38282	8.90127	6.79489	4.67542	12.95920	12.77234	11.98175	4.06683	3.56374	3.17438	22.36922	20.10524	17.79319
21860	2.62291	2.87748	2.20797	16.95701	16.14835	15.38425	8.90156	6.79954	4.68097	12.96103	12.77688	11.98330	4.07328	3.56756	3.17898	22.37560	20.11142	17.79701
22020	2.62323	2.88151	2.20751	16.96140	16.15215	15.38066	8.89015	6.79436	4.67727	12.95649	12.77205	11.97986	4.07160	3.56488	3.17605	22.38088	20.11214	17.79869
22190	2.62512	2.88140	2.20857	16.96478	16.15266	15.38398	8.89118	6.79226	4.67794	12.95619	12.77469	11.98089	4.07017	3.56572	3.17945	22.38143	20.11384	17.79929
22350	2.62681	2.88003	2.20839	16.96877	16.15470	15.38377	8.90179	6.79162	4.67765	12.95691	12.77785	11.97888	4.06759	3.56437	3.17567	22.39420	20.11519	17.80224
22520	2.62453	2.88025	2.20564	16.96730	16.15315	15.37890	8.90477	6.79425	4.68122	12.95356	12.77717	11.97942	4.07019	3.56860	3.17817	22.39219	20.11983	17.80080
22680	2.62659	2.87969	2.20755	16.96741	16.15483	15.38204	8.90001	6.79562	4.67859	12.95514	12.77950	11.98097	4.07158	3.56495	3.17762	22.39347	20.12046	17.79847
22850	2.62630	2.88184	2.20771	16.97163	16.15887	15.38497	8.90173	6.80170	4.68354	12.95706	12.78321	11.98333	4.07470	3.56492	3.18006	22.38635	20.11814	17.80191
23020	2.61576	2.87214	2.19838	16.97550	16.16095	15.38436	8.87700	6.77649	4.66662	12.95717	12.78306	11.98414	4.05927	3.55187	3.16229	22.39211	20.12112	17.80634	34.34	6.1	0.00	-2.04	0.01732	0.01200	0.01519	0.01827	0.01890	0.01478	0.00546	0.01514	0.02006	0.01858	0.01286	0.01639	0.01706	0.01763	0.01377	0.00575	0.01615	0.02149
23180	2.61388	2.86839	2.19504	16.97296	16.15668	15.38056	8.88583	6.77809	4.66372	12.95411	12.77943	11.98104	4.05809	3.55270	3.16387	22.38718	20.12160	17.80599
23340	2.61525	2.86928	2.19912	16.97203	16.15500	15.38280	8.87884	6.77562	4.66820	12.95373	12.77841	11.98233	4.05834	3.54979	3.16350	22.37844	20.11817	17.80447
23510	2.61519	2.87362	2.19813	16.97368	16.15638	15.38789	8.88807	6.78363	4.66992	12.95444	12.78060	11.98318	4.06359	3.55544	3.16863	22.39484	20.11851	17.80531
23670	2.61387	2.87468	2.19932	16.96805	16.15166	15.38041	8.86978	6.77584	4.66543	12.94960	12.77903	11.98205	4.05592	3.55387	3.16339	22.37388	20.11566	17.80138
23840	2.61401	2.87164	2.19829	16.96649	16.15023	15.38185	8.88256	6.77596	4.66392	12.95181	12.77835	11.98155	4.05657	3.55311	3.16572	22.38263	20.12010	17.80135
24010	2.61665	2.87353	2.19930	16.97160	16.15155	15.38194	8.89099	6.78383	4.66423	12.95146	12.77932	11.98078	4.06064	3.55848	3.16895	22.37497	20.12093	17.80680
24170	2.61836	2.87508	2.20270	16.97446	16.15490	15.38616	8.89427	6.78333	4.66869	12.95430	12.78112	11.98203	4.05970	3.55468	3.16578	22.37425	20.11948	17.80344
24340	2.61547	2.87271	2.19787	16.96776	16.14959	15.38164	8.88371	6.77700	4.66559	12.94923	12.77739	11.97990	4.05497	3.55124	3.16522	22.36478	20.10745	17.79748
24500	2.61277	2.87170	2.20025	16.96443	16.15053	15.37769	8.89231	6.78172	4.66995	12.94842	12.77512	11.97988	4.05904	3.55350	3.16526	22.37170	20.10803	17.79729
24670	2.62001	2.87447	2.20067	16.96061	16.14124	15.37255	8.88455	6.78779	4.67244	12.94265	12.76739	11.97228	4.06540	3.56471	3.17563	22.35022	20.10461	17.78924	34.34	6.1	0.00	-2.04	0.01733	0.01200	0.01519	0.01826	0.01890	0.01477	0.00547	0.01515	0.02007	0.01858	0.01286	0.01639	0.01707	0.01764	0.01378	0.00575	0.01614	0.02148
24830	2.62299	2.87737	2.20528	16.95902	16.13943	15.36738	8.89046	6.79129	4.66966	12.93008	12.76066	11.96442	4.05943	3.54185	3.14863	22.37351	20.10644	17.79742
24990	2.59038	2.84291	2.16842	16.97934	16.15617	15.38194	8.82143	6.71132	4.59712	12.94298	12.78907	11.98662	3.98640	3.48234	3.09518	22.39520	20.12621	17.81547
25160	2.55944	2.81889	2.14982	17.00225	16.17534	15.39371	8.79328	6.69935	4.59896	12.95380	12.79273	11.98870	3.99780	3.49628	3.11230	22.41384	20.13492	17.82239
25320	2.56742	2.82703	2.15601	17.00950	16.18015	15.39793	8.79981	6.70107	4.59496	12.95729	12.79639	11.99355	3.98732	3.48939	3.10750	22.41091	20.14155	17.82605
25490	2.56812	2.82961	2.15753	17.00448	16.17913	15.39784	8.81078	6.72190	4.61237	12.95502	12.79433	11.99102	4.01187	3.51418	3.12794	22.38225	20.12447	17.81674
25660	2.58434	2.84472	2.17260	16.99474	16.16941	15.39029	8.83636	6.73270	4.62928	12.95229	12.78886	11.98528	4.02336	3.51917	3.13327	22.38079	20.12292	17.81275
25820	2.58420	2.84121	2.16878	16.99034	16.16629	15.38682	8.83003	6.72646	4.61423	12.95070	12.78635	11.98562	4.00937	3.50392	3.11864	22.36641	20.12340	17.81164
25990	2.57340	2.82904	2.16051	16.99297	16.16583	15.38655	8.81573	6.71429	4.61169	12.94831	12.78502	11.98445	4.00552	3.50571	3.12097	22.38262	20.12558	17.81780
26150	2.57315	2.83252	2.16393	16.99268	16.16836	15.38784	8.81220	6.71687	4.61233	12.95185	12.78815	11.98711	4.00828	3.51084	3.12372	22.38207	20.12345	17.80446
26320	2.58390	2.84414	2.17003	16.98557	16.16142	15.38401	8.82630	6.73209	4.62266	12.94962	12.78425	11.98470	4.02038	3.51684	3.13032	22.37497	20.11593	17.80500	34.34	6.0	0.00	-2.04	0.01733	0.01201	0.01520	0.01826	0.01889	0.01477	0.00547	0.01516	0.02007	0.01858	0.01286	0.01639	0.01707	0.01764	0.01378	0.00575	0.01614	0.02148
26480	2.58496	2.84310	2.17261	16.98346	16.15925	15.38285	8.83964	6.73566	4.62756	12.95010	12.78487	11.98309	4.02111	3.51697	3.12953	22.37315	20.11129	17.80091
26650	2.58430	2.84253	2.17393	16.97770	16.15813	15.37991	8.83092	6.73803	4.63156	12.95299	12.78317	11.98317	4.02451	3.51895	3.12841	22.36277	20.11023	17.79828
26810	2.58540	2.84053	2.17138	16.97524	16.15478	15.37713	8.83690	6.73111	4.62435	12.94809	12.78030	11.98116	4.01988	3.51589	3.12837	22.37169	20.11129	17.79928
26970	2.58543	2.84161	2.17111	16.97382	16.15442	15.37836	8.83411	6.73311	4.62470	12.95012	12.78006	11.98211	4.02106	3.51575	3.12734	22.36805	20.10810	17.79408
27140	2.58215	2.84005	2.16989	16.97154	16.15136	15.37617	8.82898	6.72651	4.62128	12.94748	12.77630	11.97822	4.01932	3.51834	3.13286	22.37205	20.11202	17.79958
27300	2.58693	2.84550	2.17459	16.97454	16.15613	15.38063	8.84420	6.73278	4.62886	12.95312	12.77931	11.98330	4.02262	3.51616	3.13130	22.36732	20.10559	17.79617
27470	2.58616	2.84360	2.17621	16.97264	16.15366	15.37944	8.84512	6.73250	4.62597	12.95181	12.78116	11.98348	4.02237	3.51718	3.12978	22.38189	20.11033	17.79741
27630	2.58491	2.84077	2.16900	16.97217	16.15478	15.37692	8.83576	6.73032	4.62150	12.95115	12.77923	11.98221	4.01658	3.51265	3.12387	22.37716	20.10641	17.79598
27790	2.58233	2.84016	2.17145	16.97431	16.15618	15.38560	8.85271	6.73428	4.62660	12.95585	12.78234	11.98626	4.02129	3.51610	3.12914	22.36969	20.11308	17.80242
27960	2.58659	2.84135	2.17013	16.97383	16.15241	15.37981	8.81824	6.73072	4.62408	12.95516	12.78067	11.98314	4.02100	3.51629	3.12919	22.37547	20.11452	17.80329	34.34	6.1	0.00	-2.04	0.01734	0.01201	0.01520	0.01826	0.01889	0.01477	0.00547	0.01516	0.02008	0.01858	0.01286	0.01639	0.01708	0.01765	0.01379	0.00575	0.01614	0.02148
28120	2.58467	2.84167	2.17102	16.97230	16.15560	15.38408	8.83721	6.73292	4.62516	12.95581	12.78030	11.98455	4.02073	3.51765	3.12982	22.38021	20.11375	17.79955
28290	2.58336	2.83899	2.16808	16.97270	16.15215	15.38271	8.83641	6.73079	4.62236	12.95540	12.77699	11.98238	4.02295	3.51912	3.13381	22.37128	20.11761	17.80389
28450	2.58670	2.84396	2.17344	16.97782	16.15419	15.38669	8.83766	6.73474	4.62723	12.95760	12.77991	11.98542	4.02078	3.51883	3.13121	22.36655	20.11085	17.80259
28620	2.58609	2.84555	2.17530	16.97582	16.15915	15.39085	8.83270	6.73712	4.62998	12.95937	12.78632	11.98931	4.02439	3.51969	3.13526	22.37766	20.12032	17.80776
28780	2.58817	2.84468	2.17209	16.97999	16.15877	15.38914	8.83202	6.73071	4.62346	12.95916	12.78399	11.98802	4.02269	3.52154	3.13348	22.38969	20.12274	17.81118
28940	2.58875	2.84268	2.17215	16.98100	16.16314	15.39199	8.82775	6.73341	4.62707	12.95915	12.78600	11.99313	4.02190	3.51656	3.12961	22.38276	20.12153	17.80939
29110	2.58663	2.84822	2.17567	16.98335	16.16674	15.39759	8.83213	6.73564	4.62914	12.96420	12.78974	11.99338	4.02434	3.52017	3.13298	22.40339	20.12738	17.81606
29270	2.58547	2.84298	2.17138	16.98199	16.16480	15.39448	8.83743	6.73097	4.62539	12.96075	12.78699	11.99116	4.02085	3.51819	3.13137	22.37219	20.12134	17.81210
29440	2.58705	2.84353	2.17111	16.98396	16.16541	15.39319	8.83624	6.73292	4.62364	12.96221	12.78582	11.98923	4.01894	3.51729	3.12951	22.38550	20.12521	17.81300
29600	2.58733	2.84731	2.17366	16.98499	16.16395	15.39374	8.82714	6.73568	4.62601	12.96190	12.78708	11.99215	4.01867	3.51845	3.13122	22.38594	20.12284	17.81148	34.39	6.1	0.00	-2.04	0.01734	0.01201	0.01520	0.01826	0.01889	0.01477	0.00547	0.01516	0.02008	0.01858	0.01286	0.01639	0.01708	0.01765	0.01379	0.00575	0.01614	0.02148
29770	2.58542	2.84298	2.17678	16.98325	16.16400	15.39437	8.83307	6.73594	4.62534	12.96295	12.78792	11.99207	4.02199	3.51852	3.13314	22.38649	20.12661	17.81522
29930	2.58702	2.84526	2.17305	16.98340	16.16469	15.39536	8.83706	6.73010	4.62526	12.96203	12.78546	11.98919	4.02195	3.52072	3.13088	22.38813	20.12216	17.81297
30100	2.58819	2.84408	2.17259	16.98044	16.16336	15.39332	8.84247	6.73291	4.62354	12.96030	12.78504	11.98894	4.02106	3.51972	3.12943	22.37883	20.12274	17.81197
30260	2.58668	2.84425	2.17476	16.97674	16.16009	15.39155	8.84173	6.73370	4.62786	12.96144	12.78342	11.98824	4.02432	3.51907	3.13240	22.37810	20.12652	17.81232
30430	2.58666	2.84308	2.17321	16.97766	16.16009	15.38778	8.82828	6.73234	4.62229	12.96009	12.78632	11.98991	4.02389	3.52523	3.13799	22.38467	20.13194	17.81959
30590	2.58854	2.84592	2.17517	16.98473	16.16591	15.39643	8.83159	6.73319	4.62766	12.96234	12.78782	11.99243	4.02116	3.51932	3.13095	22.37664	20.12782	17.81386
30760	2.58725	2.84405	2.17502	16.98221	16.16287	15.39329	8.82185	6.73214	4.62552	12.96131	12.78727	11.99112	4.01925	3.51594	3.12928	22.38759	20.13373	17.81913
30920	2.58772	2.84478	2.17562	16.98432	16.16857	15.39727	8.82720	6.73539	4.62805	12.96513	12.78988	11.99412	4.02193	3.51930	3.13278	22.39982	20.13586	17.82355
31090	2.58690	2.84457	2.17419	16.98893	16.16901	15.39640	8.83312	6.73189	4.62363	12.96380	12.78878	11.99316	4.02129	3.51760	3.13079	22.39343	20.13329	17.82203
31250	2.58599	2.84348	2.17456	16.98774	16.16767	15.39735	8.82981	6.73226	4.62521	12.96454	12.78983	11.99223	4.01986	3.51842	3.13107	22.39625	20.13511	17.81975	34.34	6.0	0.00	-2.04	0.01734	0.01201	0.01520	0.01826	0.01889	0.01477	0.00547	0.01517	0.02008	0.01857	0.01286	0.01639	0.01708	0.01765	0.01379	0.00575	0.01613	0.02148
31420	2.58843	2.84321	2.17502	16.98493	16.16821	15.39789	8.83106	6.73348	4.62689	12.96325	12.78892	11.99489	4.01934	3.51677	3.13020	22.40228	20.13628	17.82049
31580	2.58897	2.84698	2.17665	16.99105	16.17011	15.39993	8.83573	6.73797	4.62726	12.96515	12.79357	11.99511	4.02096	3.51945	3.13185	22.38548	20.13521	17.82233
31750	2.58752	2.83912	2.17512	16.98687	16.16632	15.39474	8.82719	6.73415	4.62477	12.96201	12.78832	11.98994	4.01990	3.51696	3.13182	22.39716	20.13018	17.81728
31910	2.58655	2.84209	2.17355	16.98708	16.16645	15.39435	8.83431	6.73290	4.62339	12.95858	12.78656	11.98994	4.01751	3.51692	3.12944	22.38548	20.13066	17.81652
32080	2.58714	2.84320	2.17056	16.98447	16.16494	15.39444	8.83864	6.72717	4.62595	12.95935	12.78677	11.99012	4.02045	3.51628	3.13113	22.39077	20.13589	17.81690
32240	2.58803	2.84154	2.17345	16.98954	16.16701	15.39384	8.83249	6.73546	4.62698	12.96149	12.78947	11.99314	4.01754	3.51675	3.12774	22.38986	20.12964	17.81818
32410	2.58739	2.84379	2.17580	16.98647	16.17085	15.39603	8.85147	6.73883	4.62832	12.96291	12.79198	11.99727	4.02258	3.51808	3.13217	22.39168	20.13749	17.82505
32570	2.58711	2.84360	2.17291	16.99186	16.17123	15.39585	8.83944	6.73192	4.62385	12.96166	12.79255	11.99421	4.02011	3.51948	3.13199	22.38785	20.14039	17.82567
32740	2.59102	2.84307	2.17468	16.99493	16.17655	15.39777	8.84833	6.73642	4.62739	12.96563	12.79501	11.99574	4.01972	3.51818	3.12823	22.38201	20.13594	17.81921
32900	2.58875	2.84538	2.17563	16.99226	16.17511	15.39868	8.85101	6.73979	4.62827	12.96474	12.79753	11.99675	4.02016	3.51950	3.12819	22.39980	20.13700	17.82309	34.34	6.2	0.00	-2.04	0.01734	0.01201	0.01520	0.01826	0.01889	0.01477	0.00547	0.01517	0.02009	0.01857	0.01286	0.01639	0.01708	0.01765	0.01379	0.00575	0.01613	0.02148
33060	2.58637	2.84051	2.17447	16.99725	16.17432	15.39859	8.83698	6.73109	4.62607	12.96250	12.79507	11.99552	4.02024	3.51922	3.13126	22.41754	20.13439	17.82382
33230	2.58930	2.84155	2.17384	16.99389	16.17281	15.39658	8.82519	6.73540	4.62588	12.96267	12.79201	11.99617	4.01970	3.51768	3.13004	22.39085	20.13618	17.82024
33390	2.58557	2.84231	2.17402	16.99018	16.17381	15.39601	8.82963	6.73602	4.62476	12.96280	12.79272	11.99617	4.01903	3.51686	3.13295	22.39322	20.13492	17.81899
33560	2.58816	2.84647	2.17371	16.99183	16.17406	15.39511	8.84525	6.73700	4.62498	12.96055	12.79363	11.99431	4.01949	3.51935	3.13357	22.39706	20.13192	17.81988
33720	2.58842	2.84298	2.17635	16.99461	16.17383	15.39535	8.83476	6.73813	4.62777	12.96346	12.79437	11.99593	4.01923	3.51803	3.12878	22.38100	20.12824	17.81902
33890	2.58760	2.84532	2.17633	16.99673	16.17872	15.40138	8.84308	6.73977	4.63031	12.96405	12.79565	11.99746	4.02240	3.52057	3.13230	22.39049	20.13618	17.82339
34050	2.58795	2.84288	2.17544	16.99739	16.17591	15.39877	8.84394	6.73209	4.62488	12.96381	12.79557	11.99709	4.02247	3.52280	3.13676	22.40309	20.14364	17.82743
34220	2.58908	2.84649	2.17679	17.00334	16.18303	15.40153	8.83100	6.73390	4.62566	12.96551	12.79764	11.99947	4.01841	3.51986	3.13145	22.38574	20.13661	17.82523
34380	2.58957	2.84403	2.17596	16.99818	16.17916	15.40039	8.83071	6.73303	4.62460	12.96608	12.79853	11.99889	4.01849	3.51583	3.12994	22.38483	20.13371	17.81983
34550	2.58439	2.84225	2.17598	16.99827	16.17773	15.39883	8.83947	6.73530	4.62816	12.96327	12.79712	11.99753	4.02017	3.51844	3.13297	22.38611	20.13818	17.82355	34.34	6.1	0.00	-2.04	0.01734	0.01201	0.01520	0.01825	0.01889	0.01477	0.00547	0.01517	0.02009	0.01857	0.01286	0.01639	0.01708	0.01765	0.01379	0.00575	0.01613	0.02147
34710	2.58596	2.84260	2.17327	16.99717	16.17576	15.39832	8.82608	6.73435	4.62634	12.96279	12.79425	11.99561	4.02028	3.51939	3.13010	22.40035	20.13479	17.82460
34880	2.58813	2.84172	2.17677	16.99815	16.17627	15.40033	8.84312	6.73413	4.62500	12.96253	12.79605	11.99614	4.02267	3.52118	3.13484	22.40071	20.14201	17.82759
35040	2.59030	2.84648	2.17597	17.00134	16.17789	15.40090	8.83776	6.73535	4.62447	12.96362	12.79864	11.99813	4.02104	3.51678	3.13149	22.38866	20.13489	17.82224
35210	2.58579	2.84294	2.17359	16.99798	16.17417	15.39919	8.84728	6.73133	4.62621	12.96205	12.79445	11.99553	4.01725	3.51799	3.12805	22.40528	20.13794	17.82178
35370	2.58617	2.84210	2.17364	16.99688	16.17456	15.39742	8.83018	6.73691	4.62529	12.96331	12.79537	11.99648	4.02016	3.51903	3.13158	22.38446	20.13780	17.82450
35540	2.58827	2.84385	2.17275	16.99975	16.17389	15.39637	8.83297	6.73246	4.62570	12.96144	12.79550	11.99426	4.02085	3.51873	3.13309	22.39633	20.13663	17.82678
35700	2.58932	2.84368	2.17475	17.00369	16.17707	15.40336	8.83537	6.73065	4.62625	12.96404	12.79964	11.99983	4.01994	3.51777	3.12939	22.40437	20.13789	17.82518
35870	2.58576	2.84201	2.17578	17.00128	16.17540	15.39904	8.82512	6.73115	4.62395	12.96164	12.79681	11.99732	4.01977	3.51743	3.12948	22.38921	20.13073	17.82238
36030	2.58710	2.84209	2.17460	16.99714	16.17423	15.39724	8.83024	6.73002	4.62113	12.96294	12.79890	11.99761	4.02056	3.51485	3.13063	22.39651	20.13818	17.82474
36200	2.58944	2.84273	2.17354	16.99827	16.17510	15.39813	8.83060	6.72875	4.62025	12.96234	12.79566	11.99784	4.01885	3.51708	3.13429	22.40222	20.13853	17.82754	34.34	6.1	0.00	-2.04	0.01734	0.01201	0.01520	0.01825	0.01889	0.01477	0.00547	0.01517	0.02009	0.01857	0.01286	0.01639	0.01708	0.01765	0.01379	0.00575	0.01613	0.02147
36370	2.58812	2.84290	2.17420	16.99812	16.17669	15.40061	8.83333	6.73117	4.62454	12.96330	12.79906	11.99891	4.01860	3.51796	3.12698	22.39382	20.13601	17.82626
36530	2.58828	2.84340	2.17549	16.99978	16.17717	15.39950	8.82599	6.73273	4.62527	12.96345	12.79849	11.99815	4.01638	3.51653	3.13036	22.39145	20.13844	17.82713
36700	2.58742	2.84366	2.17662	17.00024	16.17827	15.40046	8.83327	6.73403	4.62705	12.96424	12.80024	12.00101	4.02013	3.51837	3.13080	22.40771	20.13708	17.82930
36860	2.58679	2.84077	2.17451	17.00123	16.17674	15.40175	8.83009	6.73493	4.62385	12.96472	12.80155	12.00047	4.01861	3.51708	3.13048	22.38889	20.13771	17.82580
37030	2.58723	2.84005	2.17364	17.00033	16.17856	15.40142	8.82257	6.72929	4.62272	12.96450	12.79870	11.99952	4.01874	3.51695	3.13179	22.39601	20.13877	17.82944
37190	2.58726	2.84362	2.17370	16.99925	16.17840	15.40136	8.84171	6.73252	4.62384	12.96528	12.80027	12.00039	4.01883	3.51772	3.13340	22.38670	20.13306	17.82729
37360	2.59009	2.84383	2.17517	16.99638	16.17600	15.40202	8.83350	6.73358	4.62564	12.96301	12.79757	12.00170	4.02080	3.52146	3.13461	22.39090	20.13955	17.82550
37520	2.59040	2.84579	2.17725	16.99827	16.17812	15.40292	8.82917	6.73198	4.62466	12.96432	12.80019	12.00071	4.02026	3.51713	3.13189	22.39711	20.13306	17.82403
37690	2.58565	2.84262	2.17449	16.99250	16.16934	15.39588	8.82969	6.72862	4.62097	12.95852	12.79537	11.99585	4.01656	3.51482	3.12828	22.37011	20.12754	17.81898
37850	2.58620	2.84044	2.17401	16.99125	16.16842	15.39877	8.82377	6.73030	4.62469	12.96118	12.79828	11.99732	4.01994	3.51776	3.13282	22.38876	20.13320	17.81978	34.39	6.2	0.00	-2.04	0.01734	0.01201	0.01520	0.01825	0.01889	0.01477	0.00547	0.01517	0.02009	0.01857	0.01286	0.01639	0.01708	0.01765	0.01379	0.00575	0.01613	0.02147
38020	2.58526	2.84179	2.17368	16.99114	16.17021	15.39434	8.82867	6.72599	4.61806	12.95982	12.79438	11.99633	4.02067	3.51836	3.13495	22.39059	20.13102	17.82326
38180	2.58998	2.84585	2.17590	16.99346	16.17193	15.39895	8.82116	6.72982	4.62369	12.96334	12.79747	11.99976	4.01748	3.51849	3.13124	22.39314	20.12241	17.81810
38350	2.58605	2.83967	2.17470	16.98960	16.16853	15.39692	8.83157	6.72625	4.62129	12.96137	12.79462	11.99883	4.01747	3.51474	3.13098	22.38001	20.12052	17.81210
38510	2.58692	2.84184	2.17484	16.98711	16.16814	15.39545	8.83499	6.73040	4.62181	12.96006	12.79383	11.99773	4.01579	3.51396	3.12937	22.37855	20.11893	17.81381
38680	2.58722	2.84147	2.17082	16.98650	16.16610	15.39545	8.83681	6.72863	4.62131	12.96033	12.79342	11.99597	4.01776	3.51673	3.13104	22.36871	20.12275	17.81449
38840	2.58705	2.84002	2.17463	16.98867	16.16791	15.39662	8.82946	6.72725	4.62206	12.96209	12.79556	11.99924	4.01713	3.51535	3.12845	22.37090	20.12260	17.81243
39010	2.58897	2.84309	2.17803	16.98844	16.16745	15.39793	8.83322	6.73544	4.62763	12.96532	12.79865	12.00244	4.02084	3.51801	3.13367	22.39844	20.12449	17.81598
39170	2.58753	2.84180	2.17532	16.98896	16.16768	15.39506	8.83123	6.72942	4.62181	12.96314	12.79711	11.99746	4.01412	3.51630	3.12862	22.38147	20.11830	17.81034
39340	2.58572	2.84178	2.17312	16.98407	16.16423	15.39422	8.84274	6.72861	4.62307	12.96063	12.79313	11.99781	4.01430	3.51630	3.12913	22.37582	20.11985	17.81129
39510	2.58541	2.84403	2.17332	16.98481	16.16493	15.39449	8.82607	6.73233	4.62242	12.96150	12.79627	11.99761	4.01380	3.51440	3.12822	22.36403	20.11365	17.80814	34.34	5.9	0.00	-2.04	0.01734	0.01201	0.01520	0.01825	0.01889	0.01477	0.00547	0.01517	0.02009	0.01857	0.01286	0.01639	0.01708	0.01765	0.01379	0.00575	0.01613	0.02148
39670	2.58626	2.84309	2.17624	16.98689	16.16570	15.39659	8.84173	6.73155	4.62549	12.96510	12.79744	12.00096	4.02099	3.51989	3.13237	22.36712	20.11791	17.81096
39830	2.58733	2.84179	2.17308	16.98570	16.16570	15.39152	8.81725	6.72776	4.62221	12.96213	12.79475	11.99977	4.01652	3.51575	3.13041	22.35784	20.11501	17.80689
40000	2.58485	2.84121	2.17419	16.98223	16.16360	15.39123	8.82527	6.72441	4.61914	12.96043	12.79538	11.99939	4.01773	3.51645	3.12915	22.37058	20.11472	17.80502
40170	2.58727	2.84230	2.17273	16.98098	16.16342	15.39239	8.82004	6.72727	4.61912	12.96137	12.79616	11.99951	4.01810	3.51702	3.13141	22.36895	20.11525	17.80781
40330	2.58915	2.84566	2.17490	16.98547	16.16608	15.39446	8.81788	6.72481	4.62319	12.96384	12.79496	12.00066	4.01691	3.51690	3.13192	22.36130	20.11162	17.80629
40500	2.58616	2.84624	2.17585	16.98287	16.16953	15.39590	8.83483	6.73437	4.62584	12.96512	12.79888	12.00098	4.02046	3.51794	3.13048	22.36585	20.11544	17.81001
40660	2.58633	2.84096	2.17273	16.98541	16.16697	15.39557	8.82459	6.72966	4.62181	12.96353	12.79702	12.00018	4.01852	3.51380	3.13101	22.35930	20.11477	17.80860
40820	2.58633	2.84157	2.17186	16.98235	16.16360	15.39293	8.81992	6.72804	4.62228	12.96176	12.79650	12.00032	4.01546	3.51477	3.13085	22.37879	20.11578	17.81123
40990	2.58685	2.84180	2.17391	16.98724	16.16746	15.39473	8.82043	6.73020	4.62119	12.96563	12.79867	12.00088	4.01602	3.51582	3.12954	22.35384	20.11245	17.80960
41160	2.58823	2.84337	2.17478	16.98933	16.17333	15.39912	8.82316	6.72921	4.62501	12.96772	12.80052	12.00313	4.01772	3.51604	3.13051	22.36600	20.11335	17.81079	34.39	6.1	0.00	-2.04	0.01734	0.01201	0.01520	0.01826	0.01889	0.01477	0.00547	0.01517	0.02009	0.01857	0.01286	0.01639	0.01708	0.01765	0.01379	0.00575	0.01613	0.02148
41320	2.58582	2.84308	2.17400	16.98574	16.16870	15.39426	8.83722	6.72969	4.62223	12.96605	12.79905	12.00077	4.01706	3.51550	3.13164	22.36309	20.10905	17.80832
41490	2.58448	2.84206	2.17361	16.98363	16.16502	15.39369	8.82253	6.72618	4.62083	12.96467	12.79683	11.99991	4.01643	3.51722	3.13010	22.35308	20.10905	17.81033
41650	2.58741	2.84321	2.17418	16.98507	16.16543	15.39504	8.82839	6.72864	4.62140	12.96476	12.79803	12.00213	4.01619	3.51461	3.12915	22.36527	20.10794	17.80604
41820	2.58797	2.84486	2.17659	16.98623	16.16725	15.39621	8.83528	6.73287	4.62526	12.96936	12.80157	12.00525	4.02128	3.51821	3.13456	22.36964	20.11272	17.81076
41980	2.58871	2.84196	2.17443	16.98522	16.16712	15.39606	8.82930	6.72703	4.62119	12.96762	12.80068	12.00299	4.01619	3.51194	3.12989	22.34490	20.10963	17.80921
42150	2.58353	2.83963	2.17179	16.98397	16.16400	15.39168	8.82179	6.72287	4.61810	12.96410	12.79819	12.00110	4.01548	3.51379	3.12897	22.34599	20.11350	17.80748
42310	2.58497	2.84071	2.17097	16.98339	16.16433	15.39147	8.81332	6.72370	4.61987	12.96541	12.79707	12.00281	4.01379	3.50938	3.12408	22.35763	20.10688	17.80428
42480	2.58552	2.84041	2.17437	16.98293	16.16737	15.39468	8.82873	6.72918	4.62268	12.96851	12.79995	12.00469	4.01779	3.51473	3.12983	22.36436	20.10997	17.80498
42640	2.58767	2.83945	2.17324	16.98287	16.16599	15.39456	8.81735	6.72665	4.62294	12.96982	12.80364	12.00604	4.01551	3.51389	3.12735	22.35945	20.10789	17.80420
42810	2.58323	2.84165	2.17408	16.98258	16.16680	15.39739	8.81758	6.72428	4.62162	12.96849	12.80374	12.00664	4.01718	3.51151	3.12906	22.34350	20.10985	17.80591	34.39	6.1	0.00	-2.04	0.01734	0.01201	0.01520	0.01826	0.01889	0.01477	0.00547	0.01517	0.02009	0.01857	0.01286	0.01639	0.01708	0.01765	0.01379	0.00575	0.01613	0.02148
42970	2.58497	2.83841	2.17194	16.98330	16.16514	15.39526	8.82338	6.72644	4.61804	12.96622	12.80154	12.00458	4.01527	3.51613	3.13123	22.36223	20.10835	17.80775
43140	2.58648	2.84160	2.17553	16.98490	16.16608	15.39640	8.83699	6.72686	4.62155	12.96801	12.80304	12.00721	4.01659	3.51074	3.12790	22.35750	20.10516	17.80512
43300	2.58483	2.84373	2.17615	16.98437	16.17010	15.39895	8.82173	6.72928	4.62776	12.97169	12.80613	12.01038	4.01968	3.51704	3.12942	22.36678	20.11381	17.81054
43470	2.58730	2.84064	2.17440	16.98649	16.17161	15.39892	8.82657	6.72774	4.62212	12.97198	12.80427	12.00830	4.01771	3.51569	3.12757	22.36187	20.10806	17.80715
43630	2.58599	2.83960	2.17177	16.98380	16.16757	15.39304	8.81684	6.72338	4.61595	12.96626	12.80097	12.00452	4.01560	3.51610	3.12953	22.35423	20.10965	17.80715
43800	2.58766	2.84104	2.17450	16.98533	16.17038	15.39409	8.81314	6.72762	4.61970	12.96772	12.80364	12.00698	4.01524	3.51250	3.12936	22.35950	20.10463	17.80330
43960	2.58562	2.84391	2.17633	16.98721	16.16959	15.39664	8.82753	6.72672	4.62184	12.96873	12.80662	12.00773	4.01718	3.51831	3.12964	22.34732	20.10869	17.80574
44130	2.58671	2.84309	2.17206	16.98687	16.16690	15.39496	8.81394	6.72443	4.61901	12.96740	12.80262	12.00636	4.01448	3.51234	3.13038	22.36551	20.10849	17.80563
44290	2.58734	2.83947	2.17435	16.98484	16.16491	15.39259	8.82492	6.72195	4.61500	12.96751	12.80437	12.00591	4.01343	3.51602	3.12823	22.35750	20.10729	17.80534
44460	2.58492	2.84115	2.17460	16.98429	16.16718	15.39712	8.81819	6.72522	4.61998	12.97044	12.80583	12.00832	4.01359	3.51213	3.12503	22.35633	20.10550	17.80350	34.34	6.0	0.00	-2.04	0.01734	0.01201	0.01520	0.01825	0.01889	0.01477	0.00547	0.01517	0.02009	0.01857	0.01286	0.01639	0.01708	0.01765	0.01379	0.00574	0.01613	0.02148
44620	2.58470	2.84349	2.17384	16.98664	16.17209	15.39820	8.82206	6.72830	4.62229	12.97201	12.80973	12.01167	4.01587	3.51457	3.13091	22.35652	20.11043	17.80727
44790	2.58711	2.84241	2.17349	16.98707	16.16910	15.39727	8.81711	6.72264	4.61723	12.96854	12.80651	12.00826	4.01633	3.51728	3.13179	22.34779	20.11043	17.80974
44950	2.58605	2.84177	2.17662	16.98968	16.17304	15.39892	8.82275	6.72711	4.62048	12.97224	12.80852	12.01274	4.01643	3.51485	3.12903	22.34652	20.10729	17.80733
45120	2.58521	2.84017	2.17426	16.99075	16.17524	15.39919	8.83573	6.72788	4.62005	12.97179	12.81107	12.01230	4.01927	3.51410	3.13176	22.35761	20.11304	17.81085
45280	2.58736	2.84174	2.17665	16.99272	16.17875	15.40359	8.83049	6.72548	4.62151	12.97621	12.81353	12.01369	4.01587	3.51409	3.13140	22.36070	20.10594	17.80833
45450	2.58645	2.84134	2.17523	16.99252	16.17619	15.40081	8.82047	6.72309	4.62091	12.97569	12.81259	12.01537	4.01678	3.51391	3.13082	22.35070	20.10748	17.80836
45610	2.58559	2.84040	2.17075	16.98951	16.17278	15.39928	8.82730	6.72159	4.61699	12.97268	12.81067	12.01333	4.01374	3.51230	3.13020	22.35179	20.10164	17.80714
45780	2.58693	2.84088	2.17460	16.99119	16.17455	15.39991	8.82616	6.72235	4.61705	12.97451	12.81172	12.01531	4.01341	3.51214	3.12637	22.35233	20.10034	17.80272
45940	2.58375	2.83901	2.17308	16.98716	16.17450	15.40057	8.82827	6.72443	4.61772	12.97161	12.81191	12.01521	4.01497	3.51266	3.12972	22.34979	20.10391	17.80741
46110	2.58450	2.83892	2.17335	16.98859	16.17386	15.39976	8.81884	6.72040	4.61720	12.97376	12.81197	12.01340	4.01283	3.51426	3.12691	22.35470	20.11203	17.81188	34.34	6.1	0.00	-2.04	0.01734	0.01201	0.01520	0.01826	0.01889	0.01477	0.00547	0.01517	0.02009	0.01857	0.01286	0.01639	0.01708	0.01765	0.01379	0.00574	0.01613	0.02148
46270	2.58564	2.84057	2.17231	16.99337	16.17809	15.40368	8.81548	6.72114	4.61678	12.97461	12.81422	12.01708	4.01244	3.51162	3.12385	22.35233	20.10551	17.80944
46440	2.58465	2.84196	2.17603	16.99421	16.18277	15.40680	8.83620	6.72639	4.62130	12.98030	12.81850	12.02110	4.01391	3.51423	3.12859	22.36835	20.11522	17.81188
46600	2.58419	2.83993	2.17451	16.99302	16.17875	15.40509	8.81173	6.72170	4.61719	12.97764	12.81619	12.01799	4.01208	3.51142	3.12531	22.35670	20.11073	17.81451
46770	2.58291	2.83849	2.17140	16.99247	16.17686	15.40548	8.81963	6.72187	4.61755	12.97744	12.81525	12.01746	4.01131	3.51165	3.12584	22.34815	20.10937	17.81530
46930	2.58335	2.84052	2.17231	16.99673	16.18160	15.40800	8.81298	6.72088	4.61594	12.97877	12.81816	12.01803	4.00959	3.51133	3.12642	22.36052	20.10971	17.81359
47100	2.58504	2.84362	2.17537	16.99720	16.18172	15.41068	8.81560	6.72591	4.61883	12.98015	12.82096	12.02280	4.01461	3.51136	3.12780	22.36016	20.11798	17.81867
47260	2.58478	2.83970	2.17290	16.99801	16.17916	15.41047	8.80202	6.72217	4.61640	12.97845	12.81742	12.01877	4.01169	3.51018	3.12434	22.35033	20.10633	17.81327
47430	2.58292	2.83563	2.17082	16.99242	16.17694	15.40236	8.80435	6.71671	4.61393	12.97629	12.81357	12.01677	4.01120	3.51373	3.12883	22.34961	20.11338	17.81614
47590	2.58420	2.83943	2.17360	16.99702	16.18113	15.40557	8.82470	6.72452	4.61750	12.97777	12.81540	12.01859	4.01142	3.51120	3.12717	22.34633	20.10783	17.81319
47760	2.58649	2.84170	2.17552	17.00028	16.18384	15.41062	8.81997	6.72530	4.62009	12.98139	12.81955	12.02068	4.01534	3.51098	3.12725	22.35930	20.11509	17.81842	34.39	6.0	0.00	-2.04	0.01734	0.01201	0.01520	0.01825	0.01889	0.01477	0.00547	0.01517	0.02009	0.01857	0.01286	0.01639	0.01708	0.01765	0.01379	0.00574	0.01613	0.02147
47920	2.58579	2.84028	2.17258	16.99753	16.18072	15.40837	8.81701	6.71881	4.61497	12.97769	12.81952	12.02057	4.01159	3.51011	3.12519	22.35711	20.10813	17.81530
48090	2.58414	2.83827	2.17312	16.99643	16.18092	15.40891	8.81877	6.72288	4.61697	12.98139	12.81916	12.02373	4.01415	3.51139	3.12692	22.36003	20.11490	17.81921
48250	2.58364	2.83711	2.17052	17.00159	16.18225	15.41095	8.81377	6.71674	4.61502	12.98008	12.81892	12.02152	4.01176	3.51303	3.13030	22.36494	20.11640	17.82185
48420	2.58436	2.83760	2.17519	17.00165	16.18487	15.41510	8.80905	6.71825	4.61252	12.98269	12.82385	12.02480	4.01117	3.50928	3.12666	22.36021	20.11437	17.82369
48580	2.58059	2.83943	2.17526	17.00266	16.18661	15.41468	8.82440	6.72472	4.61754	12.98420	12.82419	12.02482	4.01261	3.51082	3.12365	22.36767	20.12167	17.82505
48750	2.58303	2.83797	2.17229	17.00104	16.18010	15.41044	8.81928	6.71751	4.61313	12.98099	12.82002	12.02116	4.01374	3.51230	3.12739	22.36075	20.12360	17.82608
48910	2.58474	2.84082	2.17394	17.00385	16.18213	15.41393	8.81729	6.72104	4.61755	12.98137	12.82147	12.02243	4.01258	3.51001	3.12482	22.35948	20.11625	17.82236
49070	2.58261	2.83879	2.17478	17.00452	16.18423	15.41597	8.81724	6.72234	4.61911	12.98396	12.82094	12.02504	4.01381	3.51277	3.12422	22.36294	20.11939	17.82190
49240	2.58371	2.83840	2.17051	17.00191	16.18354	15.40882	8.81490	6.72127	4.61467	12.98143	12.81832	12.02163	4.01251	3.50920	3.12660	22.35620	20.11780	17.82353
49400	2.58349	2.83898	2.17112	17.00249	16.18257	15.41436	8.82312	6.72120	4.61325	12.98185	12.82052	12.02202	4.00871	3.50848	3.12606	22.35418	20.11361	17.81896	34.34	6.0	0.00	-2.04	0.01734	0.01201	0.01520	0.01826	0.01889	0.01477	0.00547	0.01517	0.02009	0.01857	0.01286	0.01639	0.01708	0.01765	0.01379	0.00574	0.01614	0.02148
49570	2.58167	2.83927	2.16881	17.00391	16.18569	15.41289	8.81317	6.72350	4.61688	12.98318	12.82029	12.02404	4.01125	3.50839	3.12363	22.34600	20.11395	17.81866
49730	2.58172	2.83641	2.16941	16.99869	16.18277	15.41130	8.82170	6.71698	4.61457	12.97980	12.81940	12.02197	4.00696	3.50726	3.12083	22.35345	20.10888	17.81817
49890	2.58291	2.83768	2.17084	17.00272	16.18454	15.41163	8.82500	6.72651	4.61752	12.98424	12.82349	12.02551	4.01301	3.51079	3.12376	22.35654	20.11424	17.81937
50060	2.58322	2.83822	2.16882	17.00214	16.18249	15.41124	8.82875	6.71765	4.61155	12.98246	12.81890	12.02309	4.00812	3.51025	3.12623	22.35982	20.11328	17.81853
50220	2.58506	2.83483	2.17026	17.00133	16.18169	15.41043	8.82272	6.71843	4.61150	12.98196	12.82097	12.02392	4.00949	3.50588	3.12196	22.33764	20.11110	17.81576
50390	2.58150	2.83904	2.17438	16.99875	16.18280	15.41133	8.83798	6.72137	4.61271	12.98206	12.81945	12.02392	4.00696	3.50508	3.12453	22.34182	20.11207	17.81565
50550	2.57996	2.83571	2.16866	16.99658	16.17724	15.40568	8.81430	6.71606	4.61113	12.97740	12.81664	12.02078	4.00680	3.50711	3.12156	22.34273	20.10816	17.81372
50720	2.58119	2.83746	2.16963	16.99913	16.17895	15.40673	8.82312	6.71523	4.61349	12.97886	12.81743	12.02208	4.00898	3.50949	3.12268	22.34091	20.11183	17.81551
50880	2.58176	2.83491	2.17042	16.99785	16.17988	15.40637	8.81487	6.71922	4.61445	12.98054	12.81976	12.02220	4.00537	3.50706	3.12390	22.34491	20.11062	17.81557
51050	2.58139	2.83534	2.17090	17.00023	16.18181	15.40663	8.82836	6.71799	4.61281	12.98102	12.81866	12.02212	4.01051	3.50886	3.12371	22.35298	20.11067	17.81492	34.34	6.2	0.00	-2.04	0.01734	0.01201	0.01520	0.01826	0.01889	0.01477	0.00547	0.01517	0.02009	0.01857	0.01286	0.01639	0.01708	0.01765	0.01379	0.00574	0.01614	0.02148
51210	2.57923	2.83593	2.16842	16.99765	16.17884	15.40612	8.81897	6.71526	4.61309	12.97801	12.81788	12.02141	4.00813	3.50859	3.12519	22.36080	20.11227	17.81465
51380	2.58353	2.83891	2.17329	16.99890	16.17920	15.40933	8.82415	6.71733	4.61084	12.97840	12.81609	12.01820	4.00863	3.50858	3.12200	22.35771	20.10773	17.81335
51540	2.57916	2.83617	2.17160	16.99376	16.17572	15.40795	8.81170	6.72252	4.61438	12.97947	12.81250	12.01974	4.00857	3.51020	3.12221	22.34317	20.11106	17.81403
51710	2.58156	2.83642	2.17031	16.99414	16.17160	15.40315	8.81858	6.71860	4.60891	12.97372	12.81014	12.01584	4.00999	3.50856	3.12186	22.34462	20.10932	17.81522
51870	2.58059	2.83531	2.17089	16.99179	16.17206	15.40084	8.81437	6.72026	4.61293	12.97479	12.81224	12.01535	4.00710	3.50536	3.11884	22.34898	20.10517	17.81148
52030	2.58105	2.83653	2.17142	16.99003	16.17216	15.40432	8.82717	6.71826	4.61226	12.97513	12.81389	12.01638	4.00888	3.50585	3.12229	22.34680	20.10608	17.80898
52200	2.57894	2.83366	2.16746	16.99049	16.17042	15.39658	8.82489	6.71372	4.60919	12.96945	12.81046	12.01281	4.00807	3.50656	3.12337	22.36044	20.10589	17.80836
52360	2.58076	2.83552	2.16971	16.98820	16.16978	15.39757	8.81653	6.71297	4.60932	12.97086	12.80789	12.01236	4.00836	3.50516	3.12277	22.33899	20.10020	17.80304
52530	2.58188	2.83484	2.16981	16.98687	16.16912	15.39496	8.81539	6.71500	4.61097	12.97040	12.81242	12.01287	4.00789	3.50784	3.12174	22.35116	20.10024	17.80006
52690	2.57929	2.83301	2.16773	16.98515	16.16444	15.39054	8.81208	6.71042	4.60738	12.96526	12.80352	12.00764	4.00891	3.51037	3.12559	22.33632	20.09978	17.80179	34.34	6.1	0.00	-2.04	0.01734	0.01201	0.01520	0.01826	0.01889	0.01477	0.00547	0.01517	0.02009	0.01857	0.01286	0.01639	0.01708	0.01765	0.01379	0.00575	0.01614	0.02148
52860	2.58338	2.83375	2.16956	16.98750	16.16577	15.39323	8.82191	6.71741	4.61133	12.96751	12.80504	12.01118	4.00838	3.50871	3.12249	22.34177	20.09597	17.79825
53020	2.58060	2.83391	2.16918	16.98492	16.16434	15.39383	8.81907	6.71755	4.60994	12.96467	12.80638	12.00700	4.00508	3.50633	3.11834	22.34940	20.09023	17.79502
53190	2.57992	2.83660	2.16978	16.98495	16.16828	15.39186	8.81179	6.71957	4.61510	12.96814	12.80832	12.01170	4.00989	3.50578	3.12332	22.35995	20.09592	17.79705
53360	2.58049	2.83312	2.16807	16.98223	16.16349	15.38967	8.79215	6.71127	4.60857	12.96468	12.80651	12.00884	4.00623	3.50398	3.11916	22.33559	20.09202	17.79494
53520	2.57730	2.83163	2.16815	16.97959	16.16398	15.38940	8.80878	6.71502	4.61022	12.96393	12.80426	12.00791	4.00723	3.50668	3.12264	22.31927	20.09182	17.79435
53690	2.58054	2.83485	2.16944	16.98130	16.15928	15.38679	8.80645	6.71105	4.60818	12.96432	12.80423	12.00649	4.00762	3.50987	3.12467	22.34013	20.09139	17.79814
53850	2.58250	2.83780	2.17281	16.98405	16.16383	15.38931	8.80242	6.71603	4.61400	12.96592	12.80426	12.00956	4.00880	3.50856	3.12275	22.33577	20.09313	17.79548
54020	2.57881	2.83368	2.16999	16.97936	16.16035	15.38614	8.80742	6.71071	4.61171	12.96371	12.80145	12.00641	4.00703	3.50649	3.12114	22.33196	20.08623	17.79161
54180	2.57673	2.83406	2.16902	16.97913	16.16140	15.38784	8.82100	6.71435	4.61182	12.96664	12.80452	12.00888	4.00721	3.50731	3.12334	22.32779	20.08575	17.79459
54350	2.57845	2.83421	2.16712	16.97970	16.15902	15.38839	8.80370	6.71144	4.60843	12.96271	12.79963	12.00631	4.00989	3.50768	3.12356	22.33518	20.09214	17.79514	34.34	6.1	0.00	-2.04	0.01734	0.01201	0.01520	0.01826	0.01889	0.01477	0.00547	0.01517	0.02009	0.01857	0.01286	0.01639	0.01708	0.01765	0.01379	0.00575	0.01614	0.02148
54510	2.57969	2.83472	2.16848	16.98260	16.16303	15.38983	8.80534	6.71448	4.61082	12.96480	12.80437	12.00770	4.00707	3.50726	3.12119	22.32883	20.08433	17.79148
54680	2.57865	2.83540	2.16949	16.97672	16.15933	15.38621	8.80728	6.71246	4.61071	12.96271	12.80165	12.00615	4.00593	3.50575	3.12174	22.32357	20.08824	17.79356
54840	2.57754	2.83368	2.16830	16.97739	16.16030	15.38633	8.81239	6.71287	4.60992	12.96450	12.80356	12.00722	4.00525	3.50629	3.12151	22.33663	20.08506	17.79227
55010	2.57788	2.83321	2.16759	16.97522	16.15846	15.38776	8.80762	6.70930	4.60965	12.96319	12.80196	12.00768	4.00600	3.50719	3.12424	22.32719	20.08833	17.79611
55170	2.57810	2.83338	2.16958	16.97800	16.15930	15.38911	8.80716	6.71371	4.61076	12.96491	12.80249	12.00843	4.00348	3.50502	3.11894	22.33137	20.08472	17.78953
55340	2.58248	2.83476	2.17239	16.97849	16.16262	15.38956	8.81557	6.71716	4.61218	12.96809	12.80718	12.01101	4.00823	3.50896	3.12097	22.32048	20.08323	17.79400
55500	2.58283	2.83513	2.16956	16.97837	16.15585	15.38420	8.81324	6.71196	4.61043	12.96297	12.80026	12.00712	4.00678	3.50360	3.12042	22.31396	20.08087	17.78891
55670	2.57821	2.83190	2.16496	16.97123	16.15238	15.38220	8.79677	6.70564	4.60615	12.95945	12.79843	12.00302	4.00461	3.50656	3.11957	22.31324	20.07889	17.78867
55830	2.57797	2.83272	2.16836	16.97123	16.15248	15.38043	8.81296	6.71155	4.60853	12.95843	12.79678	12.00290	4.00450	3.50516	3.11723	22.32067	20.07504	17.78190
56000	2.58026	2.83338	2.16937	16.96929	16.15275	15.38531	8.80513	6.71397	4.61188	12.96222	12.79926	12.00695	4.00708	3.50641	3.11992	22.31293	20.07987	17.78593	34.34	6.0	0.00	-2.04	0.01734	0.01201	0.01520	0.01826	0.01889	0.01477	0.00547	0.01517	0.02009	0.01857	0.01286	0.01639	0.01708	0.01765	0.01379	0.00575	0.01614	0.02148
56160	2.57878	2.83415	2.16830	16.96935	16.15214	15.38309	8.81536	6.71328	4.61078	12.96045	12.79740	12.00368	4.00441	3.50428	3.11943	22.31583	20.07925	17.78485
56330	2.57702	2.83306	2.16930	16.96733	16.15124	15.38088	8.81320	6.71594	4.60939	12.96143	12.79912	12.00561	4.00802	3.50584	3.11824	22.32416	20.07535	17.78130
56490	2.57945	2.83404	2.16753	16.96814	16.14984	15.38010	8.80587	6.71050	4.60710	12.95851	12.79622	12.00241	4.00378	3.50593	3.12219	22.31691	20.07968	17.78309
56660	2.58151	2.83658	2.17103	16.96689	16.14956	15.38109	8.80802	6.71420	4.60807	12.95941	12.79755	12.00346	4.00527	3.50346	3.12000	22.30496	20.06967	17.77787
56820	2.57645	2.83468	2.17015	16.96316	16.14923	15.38315	8.80513	6.71630	4.61304	12.96180	12.79768	12.00450	4.00638	3.50634	3.11979	22.31746	20.07722	17.78195
56990	2.57625	2.83227	2.16816	16.96351	16.14621	15.37881	8.81217	6.70931	4.60776	12.95840	12.79433	12.00226	4.00558	3.50607	3.12257	22.32652	20.08098	17.78122
57150	2.57918	2.83529	2.17229	16.96710	16.14928	15.38091	8.80808	6.71065	4.60798	12.96093	12.79596	12.00440	4.00476	3.50285	3.11922	22.31854	20.07612	17.78209
57310	2.57730	2.83504	2.17103	16.96475	16.14897	15.38294	8.81234	6.71403	4.61129	12.96421	12.79960	12.00551	4.00558	3.50490	3.11951	22.31383	20.07477	17.78363
57480	2.57744	2.83212	2.16578	16.96247	16.14655	15.37887	8.80007	6.70933	4.60610	12.95901	12.79159	12.00285	4.00722	3.50608	3.12152	22.32235	20.07487	17.78141
57640	2.57798	2.83346	2.16859	16.95992	16.14737	15.37837	8.80601	6.70697	4.60831	12.96018	12.79324	12.00257	4.00274	3.50285	3.11877	22.31955	20.07413	17.77719	34.39	6.0	0.00	-2.04	0.01734	0.01201	0.01520	0.01826	0.01889	0.01477	0.00547	0.01517	0.02009	0.01857	0.01286	0.01639	0.01708	0.01765	0.01379	0.00575	0.01614	0.02148
57810	2.57816	2.83413	2.16856	16.96232	16.14816	15.37792	8.80294	6.71164	4.60755	12.96168	12.79454	12.00425	4.00401	3.50363	3.11963	22.31339	20.07278	17.78032
57970	2.57807	2.83152	2.16697	16.96015	16.14472	15.37421	8.81448	6.70705	4.60617	12.95948	12.79143	12.00197	4.00441	3.50412	3.12095	22.31865	20.07384	17.77843
58140	2.57914	2.83301	2.16738	16.96091	16.14832	15.37475	8.81317	6.70939	4.61048	12.96131	12.79318	12.00344	4.00517	3.50523	3.11642	22.31213	20.06994	17.77505
58300	2.57840	2.83648	2.17205	16.96125	16.15107	15.37736	8.81630	6.71481	4.61102	12.96218	12.79305	12.00382	4.00678	3.50436	3.11800	22.31611	20.07499	17.77870
58470	2.57910	2.83585	2.17005	16.95738	16.14727	15.37433	8.80453	6.71001	4.60544	12.96007	12.79310	12.00132	4.00825	3.50588	3.12417	22.30887	20.08221	17.78324
58630	2.57956	2.83717	2.17158	16.96501	16.15345	15.37753	8.80448	6.71010	4.61288	12.96476	12.79386	12.00619	4.00557	3.50722	3.11980	22.30850	20.07653	17.77835
58800	2.57826	2.83398	2.17015	16.96507	16.15365	15.37816	8.78660	6.70884	4.60654	12.96356	12.79651	12.00635	4.00578	3.50570	3.12199	22.31720	20.07615	17.78227
58960	2.57965	2.83358	2.16792	16.96787	16.15588	15.38259	8.81601	6.71616	4.61324	12.96609	12.80182	12.00683	4.00527	3.50554	3.11967	22.32445	20.07542	17.78170
59130	2.57784	2.83342	2.17128	16.96695	16.15521	15.38358	8.81022	6.71794	4.61208	12.96940	12.80261	12.01077	4.00656	3.50488	3.12228	22.32699	20.08327	17.78476
59290	2.58034	2.83460	2.16908	16.96842	16.15654	15.38235	8.80818	6.71089	4.60815	12.96794	12.80028	12.01078	4.00554	3.50648	3.12107	22.32072	20.07998	17.78670	34.34	6.1	0.00	-2.04	0.01734	0.01201	0.01520	0.01826	0.01889	0.01477	0.00547	0.01517	0.02009	0.01857	0.01286	0.01639	0.01708	0.01765	0.01379	0.00575	0.01614	0.02148
59460	2.57910	2.83531	2.16829	16.97226	16.15953	15.38822	8.81221	6.71104	4.60857	12.97086	12.80513	12.01340	4.00404	3.50452	3.11953	22.31148	20.08099	17.78385
59620	2.57494	2.83242	2.16928	16.97183	16.15974	15.38926	8.80449	6.71015	4.60937	12.97378	12.80717	12.01532	4.00591	3.50621	3.11936	22.33831	20.08248	17.78913
59790	2.57715	2.82921	2.16557	16.97443	16.16050	15.38558	8.80273	6.70985	4.60802	12.96999	12.80479	12.01363	4.00604	3.50848	3.12219	22.31655	20.08667	17.78910
59950	2.58027	2.83382	2.16812	16.97475	16.16234	15.38693	8.80545	6.70674	4.60804	12.97241	12.80709	12.01385	4.00285	3.50362	3.11848	22.31293	20.07627	17.78456
60110	2.57916	2.83347	2.16937	16.97513	16.16334	15.38576	8.80375	6.71292	4.60722	12.97380	12.80843	12.01508	4.00653	3.50555	3.11815	22.32235	20.07848	17.78207
60280	2.57934	2.83243	2.16916	16.97055	16.15864	15.38361	8.79779	6.70896	4.60651	12.96816	12.80505	12.01221	4.00732	3.50591	3.12004	22.32960	20.08152	17.78726
60440	2.58022	2.83318	2.16882	16.97290	16.15994	15.38732	8.80545	6.71433	4.61167	12.97094	12.80547	12.01585	4.00646	3.50373	3.11829	22.32344	20.07993	17.78607
60610	2.57686	2.83404	2.16910	16.97229	16.16148	15.38528	8.80000	6.70992	4.60793	12.97068	12.80701	12.01451	4.00443	3.50266	3.11934	22.32906	20.07993	17.78721
60770	2.57760	2.83345	2.16866	16.97495	16.16362	15.38693	8.81608	6.71019	4.60881	12.97458	12.80751	12.01696	4.00507	3.50393	3.12015	22.33069	20.08162	17.78618
60940	2.57753	2.83185	2.16801	16.97253	16.16248	15.38684	8.79192	6.70649	4.60578	12.97215	12.80868	12.01638	4.00564	3.50499	3.11973	22.33144	20.07862	17.78530	34.39	6.1	0.00	-2.04	0.01734	0.01201	0.01520	0.01826	0.01889	0.01477	0.00547	0.01517	0.02009	0.01857	0.01286	0.01639	0.01708	0.01765	0.01379	0.00575	0.01613	0.02148
61110	2.57779	2.83339	2.16920	16.97343	16.16368	15.38834	8.80822	6.71319	4.60710	12.97456	12.80920	12.01628	4.00372	3.50700	3.12057	22.33525	20.07703	17.78854
61270	2.57777	2.83252	2.16998	16.97470	16.16118	15.38636	8.80617	6.71136	4.60856	12.97563	12.80905	12.01844	4.00413	3.50315	3.11802	22.30987	20.07544	17.78562
61440	2.58109	2.83403	2.16971	16.97476	16.16090	15.38702	8.80498	6.71568	4.60980	12.97384	12.81038	12.01743	4.00588	3.50390	3.12045	22.31005	20.07544	17.78581
61600	2.57952	2.83579	2.16953	16.97088	16.15947	15.38573	8.81237	6.71108	4.60799	12.97356	12.80886	12.01648	4.00521	3.50424	3.11801	22.31313	20.07626	17.78316
61770	2.57833	2.83418	2.16872	16.97155	16.16085	15.38687	8.81350	6.71367	4.61192	12.97633	12.80905	12.01772	4.00620	3.50523	3.11744	22.31676	20.07761	17.78746
61930	2.57925	2.83413	2.16798	16.97140	16.15921	15.38792	8.79680	6.71322	4.60756	12.97598	12.80815	12.01656	4.00534	3.50943	3.12291	22.32709	20.08054	17.79041
62100	2.58091	2.83656	2.17074	16.97725	16.16632	15.39217	8.81527	6.71353	4.61185	12.97692	12.80988	12.02038	4.00838	3.50646	3.11977	22.32111	20.07713	17.78787
62260	2.57919	2.83512	2.16762	16.97117	16.16056	15.38864	8.81959	6.70909	4.60589	12.97646	12.80849	12.01794	4.00491	3.50265	3.11646	22.32945	20.07583	17.78432
62430	2.57955	2.83559	2.16886	16.97482	16.16399	15.39319	8.81043	6.71423	4.60829	12.98008	12.81227	12.02295	4.00698	3.50608	3.11993	22.30607	20.07871	17.78792
62590	2.57781	2.83130	2.16617	16.97242	16.16027	15.38942	8.80771	6.70705	4.60443	12.97836	12.81126	12.02050	4.00605	3.50358	3.11987	22.31854	20.08341	17.79160	34.34	6.1	0.00	-2.04	0.01734	0.01201	0.01520	0.01826	0.01889	0.01477	0.00547	0.01517	0.02008	0.01857	0.01286	0.01639	0.01708	0.01765	0.01379	0.00575	0.01614	0.02148
62760	2.57716	2.83335	2.16839	16.97470	16.16465	15.39218	8.79346	6.70822	4.60620	12.98028	12.81144	12.02327	4.00302	3.50193	3.11732	22.32181	20.08124	17.79003
62920	2.57570	2.83232	2.16888	16.97759	16.16610	15.39637	8.79942	6.71190	4.61152	12.98117	12.81238	12.02455	4.00679	3.50533	3.12048	22.33033	20.08336	17.79276
63090	2.57757	2.83219	2.16852	16.97418	16.16224	15.39029	8.81084	6.70950	4.60764	12.97890	12.81029	12.02343	4.00301	3.50398	3.11811	22.32054	20.07884	17.79143
63250	2.57748	2.83313	2.16801	16.97389	16.16337	15.39215	8.79982	6.70683	4.60669	12.98010	12.81212	12.02408	4.00426	3.50306	3.11710	22.33015	20.08269	17.79092
63420	2.57662	2.83246	2.17005	16.97681	16.16421	15.39676	8.79250	6.70877	4.60835	12.98324	12.81105	12.02347	4.00494	3.50182	3.11800	22.32471	20.08307	17.79271
63580	2.57761	2.83447	2.17140	16.97635	16.16669	15.39679	8.79891	6.71167	4.60926	12.98613	12.81776	12.02790	4.00613	3.50346	3.12127	22.32997	20.08659	17.79452
63750	2.57726	2.83291	2.16605	16.97647	16.16250	15.39694	8.80038	6.70473	4.60432	12.98402	12.81401	12.02534	4.00366	3.50518	3.12106	22.31691	20.08683	17.79877
63910	2.57913	2.83408	2.16949	16.97953	16.16889	15.39886	8.81015	6.70916	4.60602	12.98787	12.81876	12.03070	4.00187	3.50599	3.11898	22.34667	20.08746	17.79641
64080	2.57647	2.83329	2.16984	16.97812	16.17071	15.39994	8.79703	6.71142	4.60558	12.98685	12.81947	12.03041	4.00700	3.50882	3.12354	22.33251	20.09170	17.79761
64240	2.57975	2.83214	2.17068	16.98360	16.17106	15.40164	8.80017	6.71080	4.60761	12.98868	12.81771	12.03108	4.00483	3.50259	3.11905	22.34078	20.08344	17.79731	34.34	6.1	0.00	-2.04	0.01734	0.01201	0.01520	0.01826	0.01889	0.01477	0.00547	0.01517	0.02008	0.01857	0.01286	0.01639	0.01708	0.01765	0.01379	0.00575	0.01614	0.02148
64410	2.57775	2.83112	2.16809	16.97767	16.16891	15.40098	8.80500	6.70819	4.60594	12.98679	12.81797	12.03072	4.00224	3.50299	3.11636	22.32408	20.08464	17.79419
64570	2.57791	2.83297	2.16921	16.97949	16.16873	15.40074	8.81068	6.70995	4.60590	12.98842	12.81975	12.03226	4.00526	3.50335	3.11765	22.32554	20.08286	17.79769
64740	2.57817	2.83297	2.16888	16.98103	16.17134	15.40230	8.80182	6.70790	4.60440	12.98890	12.81949	12.03013	4.00610	3.50641	3.11960	22.33642	20.09371	17.80232
64900	2.57734	2.83152	2.16740	16.98604	16.17641	15.39999	8.79909	6.70733	4.60816	12.98997	12.82227	12.03351	4.00167	3.50030	3.12050	22.33515	20.08859	17.79967
65070	2.57632	2.83251	2.16647	16.98239	16.17203	15.40248	8.79160	6.70713	4.60589	12.98836	12.82106	12.03129	4.00287	3.50056	3.11623	22.33134	20.09023	17.79880
65230	2.57766	2.83046	2.16811	16.98523	16.17436	15.40179	8.80273	6.70674	4.60610	12.98870	12.82264	12.03234	4.00387	3.50281	3.11713	22.33315	20.08686	17.79801
65400	2.57442	2.83017	2.16546	16.98100	16.17149	15.40095	8.79943	6.70630	4.60181	12.98847	12.82059	12.03189	4.00211	3.50282	3.12196	22.34132	20.09602	17.80473
65570	2.57701	2.83192	2.16850	16.98749	16.17843	15.40554	8.79864	6.70668	4.60374	12.99288	12.82668	12.03582	4.00137	3.50161	3.11731	22.34459	20.09428	17.80452
65730	2.57687	2.83120	2.16751	16.98812	16.18145	15.40425	8.80619	6.71018	4.60454	12.99308	12.82595	12.03637	4.00000	3.49962	3.11317	22.34005	20.09231	17.80202
65900	2.57643	2.83283	2.16705	16.98937	16.18442	15.40864	8.80222	6.71133	4.60657	12.99596	12.83207	12.03951	4.00220	3.50383	3.11531	22.34270	20.09665	17.80712	34.34	6.1	0.00	-2.04	0.01734	0.01201	0.01520	0.01826	0.01889	0.01477	0.00547	0.01517	0.02008	0.01857	0.01286	0.01639	0.01708	0.01765	0.01379	0.00575	0.01614	0.02148
66060	2.57592	2.82834	2.16768	16.98910	16.18342	15.40603	8.80080	6.70530	4.60207	12.99472	12.82916	12.04032	4.00019	3.50209	3.11720	22.33453	20.09872	17.80739
66230	2.57572	2.82898	2.16509	16.98815	16.18019	15.40696	8.79501	6.70619	4.60446	12.99576	12.82837	12.03858	3.99817	3.50146	3.11663	22.34906	20.09781	17.80734
66390	2.57575	2.82892	2.16866	16.98896	16.18319	15.40900	8.79512	6.70490	4.60428	12.99722	12.83089	12.04076	4.00007	3.49893	3.11716	22.33943	20.09742	17.80427
66560	2.57721	2.83296	2.17146	16.99435	16.18706	15.41611	8.81477	6.71106	4.60788	13.00072	12.83617	12.04465	4.00324	3.50305	3.11829	22.34706	20.10162	17.81119
66720	2.57741	2.82991	2.16660	16.99545	16.18673	15.41065	8.79938	6.70784	4.60297	13.00022	12.83241	12.04437	4.00123	3.49974	3.11442	22.35124	20.10099	17.80845
66890	2.57339	2.82950	2.16642	16.99789	16.18726	15.41209	8.80068	6.70573	4.60054	13.00093	12.83312	12.04411	4.00068	3.49785	3.11434	22.34288	20.09844	17.80934
67050	2.57602	2.82939	2.16473	16.99461	16.18573	15.41110	8.80108	6.70696	4.60308	13.00013	12.83333	12.04360	3.99990	3.49894	3.11513	22.33979	20.10384	17.80997
67220	2.57444	2.82841	2.16499	16.99771	16.18721	15.41128	8.78945	6.70228	4.60302	13.00091	12.83354	12.04512	3.99879	3.50087	3.11625	22.33689	20.09651	17.80639
67380	2.57385	2.82831	2.16593	16.99507	16.18698	15.41158	8.78848	6.70468	4.60437	13.00187	12.83551	12.04573	4.00021	3.50192	3.11432	22.34324	20.10027	17.80690
67550	2.57492	2.82786	2.16394	16.99348	16.18660	15.41053	8.79078	6.70433	4.60019	12.99769	12.83160	12.04296	3.99802	3.49948	3.11689	22.33079	20.10103	17.80728	34.34	6.0	0.00	-2.04	0.01734	0.01201	0.01520	0.01826	0.01889	0.01477	0.00547	0.01517	0.02008	0.01857	0.01286	0.01638	0.01708	0.01765	0.01379	0.00575	0.01614	0.02148
67710	2.57590	2.82926	2.16719	16.99763	16.18868	15.41350	8.80423	6.70688	4.60330	13.00195	12.83659	12.04789	3.99929	3.49898	3.11476	22.34169	20.10007	17.80783
67880	2.57468	2.83059	2.16563	16.99589	16.18803	15.41599	8.79662	6.70971	4.60501	13.00353	12.83583	12.04720	3.99925	3.49786	3.11386	22.34496	20.10070	17.80921
68040	2.57609	2.82830	2.16791	16.99954	16.19044	15.41930	8.80469	6.71066	4.60401	13.00466	12.83833	12.05091	4.00102	3.50149	3.11450	22.34278	20.09930	17.80861
68210	2.57429	2.82893	2.16512	16.99713	16.18870	15.41530	8.79861	6.70349	4.60315	13.00301	12.83643	12.04797	4.00146	3.49941	3.11453	22.35132	20.09602	17.80658
68370	2.57524	2.82849	2.16456	16.99505	16.18809	15.41674	8.79588	6.70248	4.60175	13.00138	12.83625	12.04665	4.00019	3.49897	3.11578	22.33969	20.09693	17.80845
68540	2.57587	2.83223	2.16825	16.99673	16.18798	15.41332	8.78630	6.70590	4.60435	13.00162	12.83578	12.04748	3.99941	3.49887	3.11420	22.33424	20.09635	17.80615
68700	2.57748	2.83174	2.16909	16.99621	16.19321	15.41893	8.80026	6.71290	4.60612	13.00382	12.83914	12.04992	4.00346	3.50235	3.11664	22.32572	20.09790	17.81024
68870	2.57653	2.82945	2.16772	16.99577	16.18919	15.41608	8.79622	6.70488	4.60292	13.00484	12.83604	12.04872	4.00104	3.50024	3.11413	22.33279	20.09235	17.80522
69030	2.57470	2.82911	2.16610	16.99493	16.18927	15.41587	8.80423	6.70346	4.60333	13.00123	12.83562	12.04671	3.99772	3.49975	3.11423	22.33951	20.09635	17.80544
69200	2.57441	2.83007	2.16474	16.99733	16.18915	15.41430	8.78358	6.70391	4.60071	13.00110	12.83831	12.04628	4.00133	3.50023	3.11828	22.33544	20.09589	17.80815	34.34	6.0	0.00	-2.04	0.01734	0.01201	0.01520	0.01826	0.01889	0.01477	0.00547	0.01517	0.02008	0.01857	0.01286	0.01638	0.01708	0.01765	0.01379	0.00575	0.01614	0.02148
69360	2.57515	2.83098	2.16748	16.99875	16.18943	15.41595	8.79550	6.70847	4.60381	13.00386	12.83670	12.04999	4.00200	3.50162	3.11565	22.34070	20.09329	17.80489
69530	2.57513	2.83053	2.16834	16.99524	16.19097	15.41481	8.79839	6.70628	4.60636	13.00408	12.84017	12.04947	4.00203	3.49903	3.11493	22.33870	20.09415	17.80660
69690	2.57560	2.82944	2.16547	16.99602	16.19069	15.41724	8.80339	6.70287	4.60083	13.00201	12.83699	12.04817	3.99936	3.49863	3.11534	22.33398	20.09290	17.80831
69860	2.57700	2.82876	2.16652	16.99988	16.19115	15.41763	8.79544	6.70323	4.60186	13.00230	12.83980	12.04979	3.99712	3.49899	3.11553	22.33725	20.09174	17.80950
70020	2.57135	2.82791	2.16516	16.99933	16.19017	15.41604	8.79839	6.70976	4.60264	13.00501	12.84051	12.05123	3.99899	3.49835	3.11329	22.34997	20.09555	17.80774
70190	2.57332	2.82589	2.16258	16.99831	16.18525	15.41241	8.79169	6.70087	4.59897	12.99939	12.83854	12.04732	3.99775	3.49960	3.11323	22.33035	20.09382	17.80896
70350	2.57540	2.82859	2.16632	16.99950	16.18953	15.41469	8.79754	6.70220	4.60108	13.00112	12.83888	12.04997	3.99822	3.49383	3.11073	22.32763	20.09203	17.80535
70510	2.57294	2.83070	2.16769	16.99663	16.19007	15.41856	8.80259	6.70617	4.60246	13.00454	12.84033	12.05170	4.00109	3.49913	3.11614	22.34179	20.09126	17.80937
70680	2.57348	2.82901	2.16329	16.99773	16.18492	15.41589	8.79391	6.69898	4.59980	13.00102	12.83765	12.04997	3.99919	3.50148	3.11392	22.33162	20.09005	17.80880
70850	2.57534	2.82798	2.16428	16.99895	16.19215	15.41836	8.79466	6.70368	4.60332	13.00473	12.83984	12.05171	3.99890	3.49913	3.11290	22.33157	20.09340	17.80962	34.39	6.1	0.00	-2.04	0.01734	0.01201	0.01520	0.01826	0.01889	0.01477	0.00547	0.01517	0.02008	0.01857	0.01286	0.01638	0.01708	0.01765	0.01379	0.00574	0.01614	0.02148
71010	2.57316	2.82828	2.16405	16.99829	16.19076	15.41593	8.79721	6.70142	4.60273	13.00312	12.84003	12.05108	3.99933	3.49894	3.11294	22.32486	20.08915	17.80577
71180	2.57527	2.83036	2.16311	17.00267	16.19110	15.41647	8.78751	6.70421	4.60372	13.00568	12.83934	12.05210	3.99902	3.49916	3.11397	22.32649	20.09335	17.80978
71340	2.57367	2.82737	2.16528	16.99927	16.18705	15.41419	8.78263	6.70338	4.60177	13.00134	12.83701	12.04794	3.99957	3.49913	3.11785	22.33266	20.09311	17.81030
71510	2.57614	2.82988	2.16818	16.99594	16.18884	15.41830	8.79806	6.70467	4.60218	13.00538	12.83940	12.05214	3.99832	3.50072	3.11571	22.32939	20.09716	17.81054
71670	2.57408	2.82936	2.16639	16.99910	16.18953	15.41893	8.79216	6.70395	4.60147	13.00723	12.84403	12.05469	3.99794	3.49889	3.11205	22.34774	20.09311	17.80878
71840	2.57652	2.83257	2.16752	17.00313	16.19433	15.42365	8.79347	6.70441	4.60414	13.01048	12.84360	12.05494	4.00006	3.49885	3.11492	22.32685	20.09726	17.81377
72000	2.57678	2.83012	2.16641	17.00365	16.19169	15.41923	8.79772	6.70265	4.60360	13.00903	12.84190	12.05321	3.99798	3.49720	3.11187	22.35173	20.09697	17.81057
72170	2.57277	2.83000	2.16710	17.00165	16.19397	15.42055	8.80113	6.70276	4.60314	13.01124	12.84360	12.05700	4.00422	3.50036	3.11737	22.35337	20.09793	17.81450
72330	2.57389	2.83167	2.16659	17.00270	16.19217	15.42130	8.79801	6.70025	4.60013	13.00877	12.84029	12.05270	3.99893	3.50516	3.11739	22.33774	20.10208	17.81673
72500	2.57854	2.83267	2.16805	17.00642	16.19501	15.42416	8.79641	6.70404	4.60161	13.01062	12.84068	12.05505	4.00013	3.50014	3.11316	22.33282	20.10053	17.81315	34.39	6.1	0.00	-2.04	0.01734	0.01201	0.01520	0.01826	0.01889	0.01477	0.00547	0.01517	0.02008	0.01857	0.01286	0.01638	0.01708	0.01765	0.01379	0.00575	0.01614	0.02148
72660	2.57621	2.82997	2.16613	17.00314	16.18917	15.41824	8.79675	6.70067	4.59927	13.00651	12.83902	12.05055	3.99478	3.49532	3.11319	22.32067	20.09450	17.80894
72830	2.57448	2.83093	2.16793	16.99890	16.19101	15.41902	8.80595	6.70364	4.60294	13.00751	12.83794	12.05347	3.99827	3.49860	3.11376	22.34353	20.09947	17.81307
72990	2.57326	2.82836	2.16551	17.00038	16.18927	15.41908	8.78405	6.69907	4.59905	13.00730	12.83708	12.05105	3.99825	3.49900	3.11533	22.33282	20.09754	17.81179
73160	2.57545	2.82918	2.16664	17.00323	16.18955	15.41899	8.79233	6.70341	4.60020	13.01007	12.84170	12.05700	3.99713	3.49883	3.11410	22.35371	20.10009	17.81147
73320	2.57826	2.83245	2.16691	17.00212	16.19022	15.41974	8.79255	6.70531	4.60250	13.01125	12.84162	12.05548	3.99955	3.50098	3.11451	22.33100	20.10149	17.81296
73490	2.57647	2.83084	2.16680	17.00117	16.18922	15.41683	8.80073	6.69996	4.60035	13.00716	12.84199	12.05393	4.00077	3.50358	3.11975	22.33717	20.10690	17.81738
73650	2.58116	2.83407	2.17084	17.00398	16.19219	15.42085	8.80300	6.70327	4.60425	13.00766	12.84144	12.05432	4.00068	3.50098	3.11876	22.34462	20.09778	17.81252
73820	2.57768	2.82878	2.16818	16.99873	16.18601	15.41824	8.79704	6.70289	4.60256	13.00691	12.84078	12.05308	4.00019	3.50067	3.11378	22.34462	20.09517	17.81241
73980	2.57676	2.83353	2.17098	16.99885	16.19052	15.42296	8.79965	6.70594	4.60354	13.01127	12.84149	12.05681	4.00252	3.50313	3.11975	22.34898	20.10328	17.81605
74150	2.57714	2.83130	2.16785	16.99986	16.18924	15.41775	8.79929	6.70132	4.60168	13.01071	12.83962	12.05362	3.99936	3.50078	3.11895	22.34758	20.10100	17.81486	34.39	6.1	0.00	-2.04	0.01734	0.01201	0.01520	0.01826	0.01889	0.01477	0.00547	0.01517	0.02008	0.01857	0.01286	0.01638	0.01708	0.01765	0.01379	0.00575	0.01614	0.02148
74310	2.57943	2.83025	2.16804	17.00235	16.18809	15.42072	8.80111	6.70189	4.60253	13.00835	12.83825	12.05577	3.99860	3.50145	3.11742	22.34522	20.09680	17.81283
74480	2.57756	2.83070	2.16882	17.00171	16.19142	15.42223	8.79089	6.70341	4.60351	13.01130	12.83886	12.05547	4.00309	3.50265	3.11739	22.35049	20.10283	17.81679
74640	2.57864	2.83326	2.16897	17.00331	16.19221	15.42658	8.79827	6.70260	4.60383	13.01075	12.84259	12.05857	4.00232	3.50105	3.11599	22.34358	20.10404	17.81793
74810	2.57741	2.83164	2.16761	17.00302	16.19024	15.42244	8.79129	6.70223	4.60110	13.01017	12.84204	12.05642	3.99804	3.50177	3.11575	22.33105	20.09917	17.81543
74970	2.57709	2.83145	2.16759	17.00128	16.19006	15.42072	8.78732	6.70015	4.59864	13.00991	12.84259	12.05519	4.00087	3.50050	3.11700	22.34885	20.10288	17.81570
75140	2.57676	2.82979	2.16926	17.00427	16.19175	15.42175	8.79259	6.69922	4.59971	13.01043	12.84280	12.05650	3.99810	3.50366	3.11748	22.34594	20.09936	17.81486
75300	2.57800	2.83281	2.16777	17.00189	16.19260	15.42078	8.79821	6.70101	4.60252	13.01069	12.84277	12.05579	4.00015	3.49978	3.11548	22.32797	20.09806	17.81057
75470	2.57757	2.83401	2.17284	17.00023	16.19050	15.42427	8.80321	6.70642	4.60633	13.01216	12.84017	12.05795	4.00164	3.50191	3.11751	22.32634	20.09946	17.81456
75630	2.57589	2.83169	2.16929	17.00305	16.19178	15.42364	8.80043	6.70514	4.60148	13.00984	12.84162	12.05521	4.00271	3.50123	3.11684	22.32997	20.09926	17.81198
75800	2.57646	2.82970	2.16674	16.99584	16.18674	15.41800	8.79862	6.70191	4.59802	13.00799	12.83895	12.05259	3.99961	3.50060	3.11572	22.33870	20.09489	17.81146	34.34	6.0	0.00	-2.04	0.01734	0.01201	0.01520	0.01826	0.01889	0.01477	0.00547	0.01517	0.02008	0.01857	0.01286	0.01638	0.01708	0.01765	0.01379	0.00575	0.01614	0.02148
75960	2.57889	2.83053	2.16922	16.99886	16.18908	15.41908	8.80237	6.70586	4.59887	13.01025	12.83877	12.05581	3.99824	3.50073	3.11521	22.32818	20.09373	17.80804
76130	2.58090	2.83306	2.17089	17.00431	16.19146	15.42260	8.81009	6.70695	4.60828	13.01350	12.84432	12.05752	4.00409	3.50219	3.11851	22.35506	20.09276	17.81157
76290	2.57767	2.83228	2.16876	16.99758	16.18659	15.41854	8.78988	6.70171	4.60158	13.00884	12.84100	12.05506	3.99542	3.49964	3.11497	22.34161	20.08727	17.80622
76460	2.57595	2.82666	2.16643	16.99654	16.18400	15.41794	8.78160	6.70011	4.59832	13.00812	12.84013	12.05498	3.99354	3.49859	3.11475	22.32872	20.09146	17.80937
76620	2.57722	2.82765	2.16822	16.99610	16.18869	15.42185	8.79504	6.70019	4.59995	13.01034	12.84224	12.05470	3.99780	3.49874	3.11278	22.33707	20.09349	17.80744
76790	2.57559	2.82979	2.16707	16.99694	16.18815	15.42011	8.78863	6.70057	4.59891	13.01018	12.84300	12.05632	3.99805	3.49890	3.11644	22.32745	20.09305	17.80994
76950	2.57496	2.82678	2.16491	16.99544	16.18754	15.41908	8.78857	6.69521	4.59700	13.00884	12.84274	12.05494	3.99679	3.50030	3.11788	22.32782	20.08982	17.81176
77120	2.57874	2.82895	2.16851	16.99735	16.18764	15.41972	8.81117	6.70009	4.59952	13.01205	12.84403	12.05798	4.00149	3.50260	3.11711	22.34143	20.09725	17.81631
77280	2.57894	2.83123	2.16946	17.00124	16.19395	15.42476	8.80890	6.70413	4.60309	13.01611	12.84745	12.06371	3.99939	3.50149	3.11627	22.33398	20.09624	17.81550
77450	2.57899	2.82826	2.16435	17.00165	16.19311	15.42450	8.79849	6.70230	4.59939	13.01563	12.84484	12.06343	3.99785	3.50003	3.11548	22.33043	20.09565	17.81249	34.34	6.1	0.00	-2.04	0.01734	0.01201	0.01520	0.01826	0.01889	0.01477	0.00547	0.01516	0.02008	0.01857	0.01286	0.01638	0.01708	0.01765	0.01379	0.00575	0.01614	0.02148
77610	2.57573	2.82810	2.16826	16.99843	16.19278	15.42658	8.79980	6.70100	4.59943	13.01709	12.84794	12.06384	3.99837	3.50149	3.11397	22.33787	20.09879	17.81659
77780	2.57628	2.82941	2.16901	17.00258	16.19650	15.42583	8.80758	6.70053	4.59812	13.01891	12.85034	12.06441	3.99777	3.49945	3.11750	22.35714	20.10284	17.81835
77940	2.57766	2.83134	2.17126	17.00456	16.19845	15.42766	8.80133	6.70120	4.60278	13.02364	12.85168	12.06969	3.99618	3.49800	3.11396	22.35005	20.10115	17.81909
78110	2.57818	2.83256	2.17083	17.00917	16.20325	15.43512	8.80519	6.70717	4.60613	13.02742	12.85623	12.07290	4.00003	3.49839	3.11782	22.34441	20.10376	17.82273
78270	2.57839	2.82873	2.16920	17.01016	16.20201	15.43428	8.79611	6.70214	4.60100	13.02463	12.85718	12.07188	4.00032	3.50111	3.11478	22.34187	20.10284	17.82063
78440	2.57786	2.82682	2.16531	17.00972	16.20132	15.43235	8.79526	6.70199	4.59976	13.02485	12.85381	12.07075	3.99841	3.49895	3.11760	22.33116	20.10690	17.82359
78600	2.57838	2.83064	2.16850	17.00987	16.20263	15.43407	8.78816	6.69888	4.60120	13.02675	12.85884	12.07339	3.99852	3.49824	3.11401	22.34187	20.10395	17.82262
78770	2.57747	2.82921	2.16944	17.01495	16.20730	15.43798	8.80718	6.70553	4.60657	13.02942	12.85947	12.07469	4.00409	3.50185	3.11611	22.35568	20.11197	17.82656
78930	2.57918	2.82919	2.16933	17.01332	16.20399	15.43506	8.80184	6.70016	4.60430	13.02545	12.85692	12.07314	3.99975	3.50047	3.11650	22.35459	20.10931	17.82862
79100	2.57877	2.82975	2.16852	17.01322	16.20385	15.43580	8.80142	6.70287	4.60022	13.02790	12.85673	12.07382	3.99714	3.49853	3.11363	22.34555	20.10991	17.82455	34.39	6.1	0.00	-2.04	0.01734	0.01201	0.01520	0.01826	0.01889	0.01477	0.00547	0.01516	0.02008	0.01857	0.01286	0.01638	0.01708	0.01765	0.01379	0.00575	0.01614	0.02148
79260	2.57877	2.83100	2.16984	17.01645	16.20659	15.44022	8.80131	6.70565	4.60104	13.03173	12.86192	12.07783	3.99985	3.49868	3.11731	22.34955	20.10986	17.82808
79430	2.57920	2.83289	2.17123	17.02112	16.21109	15.44459	8.80103	6.70666	4.60620	13.03565	12.86690	12.08161	4.00300	3.50087	3.11673	22.36428	20.11905	17.83401
79590	2.57724	2.83130	2.16869	17.02118	16.21019	15.44242	8.80767	6.70159	4.60024	13.03386	12.86373	12.08080	3.99740	3.50112	3.11496	22.35883	20.11702	17.83469
79760	2.57535	2.83031	2.16680	17.02162	16.21268	15.44688	8.78712	6.70273	4.60298	13.03496	12.86682	12.08137	4.00148	3.50042	3.11617	22.34955	20.11934	17.83667
79930	2.57783	2.83055	2.16986	17.02179	16.21384	15.44432	8.79126	6.70232	4.60331	13.03518	12.86716	12.08310	4.00162	3.50303	3.12047	22.36283	20.12717	17.84021
80090	2.58127	2.83589	2.17076	17.02694	16.21463	15.44875	8.79893	6.70628	4.60766	13.04101	12.86982	12.08747	4.00093	3.49970	3.11811	22.35901	20.11982	17.83958
80260	2.57869	2.83017	2.16847	17.02269	16.21260	15.44531	8.79717	6.70446	4.60057	13.03645	12.86616	12.08434	3.99828	3.49516	3.11269	22.35519	20.11755	17.83559
80420	2.57236	2.82855	2.16765	17.01793	16.21402	15.44673	8.79177	6.70397	4.60415	13.03742	12.86798	12.08379	4.00044	3.49810	3.11376	22.36101	20.12122	17.83608
80590	2.57512	2.82744	2.16438	17.01921	16.21119	15.44375	8.79070	6.69862	4.59747	13.03461	12.86513	12.08204	4.00016	3.49864	3.11446	22.35137	20.12470	17.83890
80750	2.57736	2.82883	2.16947	17.02188	16.21563	15.44632	8.79166	6.70088	4.60048	13.03764	12.87002	12.08486	3.99886	3.49815	3.11373	22.36556	20.12169	17.83545	34.39	6.1	0.00	-2.04	0.01734	0.01201	0.01520	0.01826	0.01889	0.01477	0.00547	0.01516	0.02008	0.01857	0.01286	0.01638	0.01708	0.01765	0.01379	0.00575	0.01614	0.02148
80920	2.57512	2.82669	2.16456	17.02075	16.21180	15.44704	8.78797	6.69772	4.59934	13.03602	12.86912	12.08633	3.99628	3.49486	3.11310	22.34828	20.11642	17.83142
81080	2.57461	2.82775	2.16897	17.02308	16.21329	15.44803	8.79036	6.69838	4.59952	13.03799	12.86949	12.08647	3.99648	3.49540	3.11170	22.36083	20.12019	17.83577
81250	2.57486	2.82943	2.16794	17.02153	16.21265	15.44433	8.78474	6.70285	4.59812	13.03659	12.86962	12.08624	3.99674	3.49873	3.11577	22.34919	20.12377	17.83784
81410	2.57666	2.82757	2.16927	17.02453	16.21828	15.44843	8.79915	6.70243	4.59853	13.04121	12.87157	12.08797	3.99744	3.49879	3.11344	22.36501	20.12643	17.83852
81580	2.57647	2.82960	2.16969	17.02720	16.21699	15.45132	8.78655	6.70043	4.60033	13.04046	12.87294	12.09095	3.99741	3.49714	3.11059	22.35282	20.11787	17.83488
81740	2.57485	2.82796	2.16933	17.02523	16.22252	15.45451	8.78820	6.70470	4.60343	13.04430	12.87777	12.09276	3.99844	3.49723	3.11287	22.36592	20.12488	17.83996
81910	2.57317	2.82456	2.16618	17.02700	16.21599	15.44888	8.78724	6.69484	4.59900	13.04137	12.87487	12.09131	3.99968	3.50084	3.11589	22.36155	20.12411	17.84080
82070	2.57466	2.82881	2.16826	17.03058	16.22313	15.45759	8.79098	6.70134	4.60085	13.04396	12.87777	12.09455	3.99926	3.49773	3.11146	22.36356	20.13287	17.84186
82240	2.57485	2.82929	2.16544	17.03078	16.22036	15.45403	8.79654	6.69665	4.60141	13.04376	12.87632	12.09400	4.00037	3.49883	3.11611	22.37485	20.13185	17.84600
82400	2.57555	2.82980	2.16831	17.03208	16.22372	15.45698	8.79609	6.69884	4.60334	13.04624	12.88064	12.09561	3.99744	3.49759	3.11389	22.36933	20.12887	17.84222	34.39	6.1	0.00	-2.04	0.01734	0.01201	0.01520	0.01826	0.01889	0.01477	0.00547	0.01516	0.02008	0.01857	0.01286	0.01638	0.01708	0.01765	0.01379	0.00575	0.01614	0.02148
82570	2.57390	2.82903	2.16511	17.03080	16.22179	15.45484	8.78401	6.69599	4.59767	13.04429	12.87769	12.09488	3.99767	3.49574	3.11322	22.36587	20.12578	17.84162
82730	2.57486	2.82777	2.16501	17.03109	16.22300	15.45333	8.79427	6.69397	4.59735	13.04514	12.88212	12.09480	3.99782	3.49804	3.11469	22.36714	20.13502	17.84780
82900	2.57701	2.82884	2.16868	17.03776	16.22871	15.45830	8.79376	6.70112	4.60045	13.04795	12.88392	12.09795	3.99814	3.49581	3.11076	22.37407	20.12965	17.84445
83060	2.57301	2.82728	2.16454	17.03549	16.22588	15.45586	8.79223	6.69520	4.59473	13.04566	12.88099	12.09549	3.99584	3.49402	3.11154	22.36332	20.12563	17.84040
