WetView ver 7.1	07-17-2019	11:59:12
AC9 Absorption and Attenuation Meter
00000311		; Serial number
2	; structure version number
Reserved
0.000000	0.000000		; Depth calibration
19200			; Baud rate
0.100000			; Path length (meters)
23			; number of temperature calibration bins
				12.61517	13.44096	14.46844	15.49904	16.50682	17.50108	18.49752	19.51783	20.49177	21.49009	22.48286	23.50673	24.54012	25.54812	26.49986	27.49321	28.50960	29.48671	30.47471	31.49432	32.50437	33.48679	34.49133	; temperature bins
a650	Blue	18.61587		0.01156	0.01096	0.01010	0.00930	0.00851	0.00774	0.00661	0.00573	0.00499	0.00402	0.00285	0.00203	0.00096	0.00000	-0.00110	-0.00152	-0.00210	-0.00247	-0.00259	-0.00317	-0.00346	-0.00380	-0.00403		; offset and temperature correction info
a676	Green	18.78942		0.00964	0.00899	0.00863	0.00813	0.00730	0.00639	0.00545	0.00448	0.00385	0.00301	0.00233	0.00165	0.00046	0.00000	-0.00106	-0.00167	-0.00251	-0.00280	-0.00316	-0.00329	-0.00377	-0.00392	-0.00441		; offset and temperature correction info
a715	Brown	18.59217		0.01171	0.01109	0.01043	0.00975	0.00878	0.00789	0.00685	0.00572	0.00469	0.00356	0.00255	0.00160	0.00061	0.00000	-0.00063	-0.00113	-0.00152	-0.00183	-0.00226	-0.00293	-0.00364	-0.00404	-0.00473		; offset and temperature correction info
c510	Red	18.18396		-0.00549	-0.00480	-0.00383	-0.00272	-0.00202	-0.00118	-0.00044	-0.00038	-0.00015	-0.00021	0.00013	0.00007	-0.00007	0.00000	-0.00007	-0.00065	-0.00045	-0.00018	0.00007	0.00039	-0.00001	-0.00002	-0.00045		; offset and temperature correction info
c532	Magenta	18.26528		-0.00721	-0.00645	-0.00581	-0.00518	-0.00465	-0.00345	-0.00281	-0.00270	-0.00182	-0.00141	-0.00108	-0.00072	-0.00022	0.00000	0.00044	0.00030	0.00031	-0.00006	-0.00052	-0.00089	-0.00142	-0.00149	-0.00154		; offset and temperature correction info
c555	Black	18.37125		-0.00430	-0.00419	-0.00381	-0.00319	-0.00286	-0.00254	-0.00205	-0.00196	-0.00138	-0.00137	-0.00067	-0.00051	-0.00030	0.00000	0.00067	0.00087	0.00057	0.00027	-0.00015	-0.00089	-0.00127	-0.00137	-0.00150		; offset and temperature correction info
a412	LtBlue	15.33566		-0.06011	-0.05567	-0.05012	-0.04441	-0.03922	-0.03412	-0.02941	-0.02503	-0.02049	-0.01588	-0.01121	-0.00784	-0.00311	0.00000	0.00273	0.00611	0.00757	0.00871	0.01066	0.01299	0.01539	0.01781	0.02175		; offset and temperature correction info
a440	LtGreen	16.05925		-0.01380	-0.01214	-0.01039	-0.00858	-0.00690	-0.00532	-0.00426	-0.00322	-0.00230	-0.00158	-0.00055	0.00006	0.00001	0.00000	0.00017	0.00016	-0.00094	-0.00222	-0.00363	-0.00486	-0.00567	-0.00651	-0.00782		; offset and temperature correction info
a488	Yellow	16.82827		0.00255	0.00293	0.00331	0.00354	0.00373	0.00378	0.00363	0.00350	0.00291	0.00225	0.00215	0.00142	0.00099	0.00000	-0.00092	-0.00169	-0.00295	-0.00396	-0.00479	-0.00542	-0.00582	-0.00604	-0.00663		; offset and temperature correction info
c650	Blue	18.49287		-0.00570	-0.00516	-0.00456	-0.00403	-0.00346	-0.00232	-0.00132	-0.00122	-0.00073	-0.00066	-0.00035	-0.00016	0.00003	0.00000	0.00044	0.00078	0.00108	0.00057	0.00040	-0.00042	-0.00033	-0.00029	-0.00034		; offset and temperature correction info
c676	Green	18.50570		0.00299	0.00293	0.00287	0.00293	0.00278	0.00294	0.00317	0.00251	0.00243	0.00215	0.00139	0.00123	0.00068	0.00000	-0.00041	-0.00106	-0.00205	-0.00268	-0.00325	-0.00413	-0.00495	-0.00610	-0.00674		; offset and temperature correction info
c715	Brown	17.88888		0.00826	0.00812	0.00773	0.00790	0.00766	0.00758	0.00753	0.00650	0.00571	0.00461	0.00359	0.00222	0.00101	0.00000	-0.00146	-0.00284	-0.00385	-0.00448	-0.00463	-0.00513	-0.00623	-0.00715	-0.00838		; offset and temperature correction info
a510	Red	17.18050		0.00353	0.00364	0.00354	0.00361	0.00381	0.00381	0.00356	0.00332	0.00277	0.00229	0.00176	0.00116	0.00036	0.00000	-0.00014	-0.00069	-0.00088	-0.00147	-0.00150	-0.00129	-0.00120	-0.00134	-0.00091		; offset and temperature correction info
a532	Magenta	17.40228		0.00550	0.00548	0.00526	0.00479	0.00464	0.00422	0.00393	0.00328	0.00253	0.00212	0.00136	0.00085	0.00039	0.00000	-0.00059	-0.00146	-0.00188	-0.00262	-0.00330	-0.00393	-0.00491	-0.00540	-0.00605		; offset and temperature correction info
a555	Black	17.72308		0.00849	0.00832	0.00800	0.00760	0.00724	0.00655	0.00580	0.00495	0.00435	0.00347	0.00252	0.00153	0.00049	0.00000	-0.00050	-0.00155	-0.00214	-0.00306	-0.00350	-0.00411	-0.00470	-0.00539	-0.00570		; offset and temperature correction info
c412	LtBlue	16.72802		-0.05949	-0.05458	-0.04744	-0.04134	-0.03547	-0.03064	-0.02511	-0.02047	-0.01574	-0.01163	-0.00761	-0.00442	-0.00204	0.00000	0.00100	0.00051	-0.00043	-0.00239	-0.00475	-0.00629	-0.00827	-0.00955	-0.01337		; offset and temperature correction info
c440	LtGreen	17.42637		-0.02723	-0.02503	-0.02216	-0.01930	-0.01691	-0.01394	-0.01125	-0.00926	-0.00732	-0.00582	-0.00401	-0.00226	-0.00093	0.00000	0.00082	0.00123	0.00133	0.00097	0.00038	-0.00003	-0.00022	-0.00023	-0.00125		; offset and temperature correction info
c488	Yellow	18.03666		-0.00640	-0.00554	-0.00465	-0.00357	-0.00276	-0.00154	-0.00067	-0.00031	-0.00014	-0.00012	0.00046	0.00032	0.00020	0.00000	0.00001	-0.00024	-0.00060	-0.00084	-0.00126	-0.00180	-0.00276	-0.00304	-0.00427		; offset and temperature correction info
0.003500	0.004000	0.015000	0.020000	0.015000	0.020000	2500.000000	2000.000000	1000.000000	; maxANoise	maxCNoise	maxADifference	maxCDifference	minACounts	minCCounts	minRCounts	maxTempSdev	maxDepthSdev
0			; auxilliary capabilities
1			; acquisition binsize
0	1.99863	1.99184	1.66862	10.61829	9.83413	9.09690	11.72182	7.75327	4.67632	7.45886	7.27929	6.83245	3.88432	3.26115	2.75604	19.27472	14.93770	11.50862	36.76	6.1	0.00	-2.04	0.01732	0.01201	0.01520	0.01819	0.01880	0.01471	0.00548	0.01520	0.02009	0.01854	0.01289	0.01644	0.01710	0.01766	0.01380	0.00570	0.01604	0.02135
160	2.00173	1.99468	1.66920	10.62082	9.83821	9.09726	11.72600	7.76213	4.68119	7.46033	7.28281	6.83501	3.88505	3.25880	2.75575	19.27041	14.93629	11.50625
330	2.00141	1.99378	1.66886	10.61876	9.83636	9.09743	11.71187	7.75667	4.67669	7.45905	7.28117	6.83248	3.88608	3.26118	2.75975	19.27243	14.94222	11.51274
490	2.00656	1.99622	1.67324	10.62572	9.84145	9.10198	11.71104	7.75940	4.68244	7.46255	7.28434	6.83577	3.88472	3.25941	2.75593	19.26557	14.93808	11.50802
660	2.00289	1.99490	1.67161	10.62136	9.83860	9.10001	11.72258	7.75911	4.68222	7.46268	7.28438	6.83523	3.88455	3.26200	2.75671	19.27028	14.93791	11.50856
820	2.00326	1.99597	1.67170	10.62315	9.84002	9.10086	11.71384	7.75595	4.68047	7.46275	7.28556	6.83512	3.88493	3.26056	2.75692	19.27095	14.93646	11.50689
990	2.00015	1.99498	1.67225	10.61915	9.83710	9.09830	11.71984	7.76041	4.68063	7.46223	7.28410	6.83685	3.88528	3.26174	2.75624	19.27230	14.93629	11.50641
1150	2.00169	1.99413	1.67119	10.62038	9.83703	9.09634	11.71248	7.75400	4.67996	7.45977	7.28275	6.83365	3.88516	3.26147	2.75775	19.27028	14.93927	11.50986
1320	2.00185	1.99603	1.67124	10.62404	9.84095	9.09988	11.70595	7.75571	4.68189	7.46326	7.28568	6.83644	3.88342	3.25874	2.75500	19.27458	14.93785	11.50941
1480	2.00025	1.99462	1.67026	10.62286	9.84227	9.10181	11.70565	7.75699	4.68173	7.46510	7.28771	6.83945	3.88793	3.25964	2.75712	19.27808	14.94269	11.51100
1650	2.00262	1.99516	1.67096	10.62501	9.84080	9.10046	11.70538	7.75495	4.67914	7.46236	7.28472	6.83619	3.88545	3.26193	2.75876	19.26766	14.94142	11.51364	36.76	6.1	0.00	-2.04	0.01732	0.01201	0.01520	0.01819	0.01880	0.01471	0.00548	0.01520	0.02009	0.01854	0.01289	0.01644	0.01710	0.01766	0.01380	0.00570	0.01604	0.02135
1810	2.00453	1.99276	1.67295	10.62906	9.84419	9.10328	11.70712	7.75710	4.68007	7.46496	7.28889	6.83850	3.88464	3.25697	2.75814	19.27479	14.94244	11.51165
1980	2.00349	1.99715	1.67350	10.62769	9.84674	9.10591	11.71859	7.76229	4.68410	7.46739	7.29115	6.84089	3.88926	3.26040	2.75795	19.27520	14.94369	11.51422
2140	2.00226	1.99183	1.67177	10.62849	9.84483	9.10391	11.70879	7.75665	4.67891	7.46464	7.28835	6.83845	3.88526	3.25827	2.75472	19.27318	14.94047	11.51206
2300	1.99868	1.99326	1.67103	10.62698	9.84371	9.10495	11.70007	7.75896	4.67890	7.46512	7.28936	6.83930	3.88113	3.25758	2.75226	19.26874	14.94102	11.51095
2470	2.00182	1.99545	1.67280	10.62977	9.84834	9.10906	11.71433	7.76261	4.68348	7.46881	7.29211	6.84297	3.88749	3.25898	2.75703	19.28058	14.94453	11.51658
2630	2.00144	1.99172	1.66990	10.63029	9.84538	9.10529	11.70303	7.75628	4.67872	7.46572	7.28901	6.83875	3.88486	3.26112	2.75917	19.27399	14.94395	11.51492
2800	2.00137	1.99229	1.67080	10.62788	9.84547	9.10404	11.70659	7.75623	4.67967	7.46517	7.28838	6.83948	3.88291	3.25704	2.75563	19.26968	14.93931	11.51033
2960	2.00040	1.99230	1.67123	10.62692	9.84460	9.10503	11.70341	7.75793	4.68046	7.46614	7.28948	6.83994	3.88217	3.25776	2.75188	19.26053	14.93966	11.50934
3120	1.99893	1.99095	1.66850	10.62495	9.84304	9.10360	11.69977	7.75375	4.67825	7.46534	7.28767	6.83945	3.88292	3.25667	2.75205	19.26309	14.93601	11.50776
3290	2.00048	1.99454	1.67165	10.62759	9.84738	9.10772	11.70998	7.75854	4.68000	7.46874	7.29236	6.84222	3.88530	3.25910	2.75685	19.26844	14.94262	11.51196	36.76	6.1	0.00	-2.04	0.01732	0.01201	0.01520	0.01819	0.01880	0.01471	0.00548	0.01520	0.02009	0.01854	0.01289	0.01644	0.01710	0.01766	0.01380	0.00570	0.01604	0.02135
3450	1.99885	1.99258	1.66932	10.62711	9.84361	9.10318	11.70709	7.75428	4.67505	7.46573	7.28810	6.83916	3.88174	3.25799	2.75477	19.26817	14.94091	11.50974
3620	1.99782	1.99058	1.67036	10.62674	9.84502	9.10425	11.72235	7.75735	4.67675	7.46561	7.28657	6.83857	3.88247	3.25854	2.75497	19.28352	14.93960	11.50971
3780	1.99848	1.99153	1.66999	10.62599	9.84376	9.10496	11.71658	7.75457	4.67839	7.46728	7.28946	6.84116	3.88203	3.25525	2.75281	19.27463	14.94105	11.51128
3950	1.99949	1.99259	1.66962	10.62531	9.84326	9.10299	11.70945	7.75257	4.67906	7.46575	7.28846	6.83840	3.88234	3.25783	2.75851	19.27153	14.94383	11.51469
4110	2.00337	1.99346	1.67074	10.62951	9.84745	9.10791	11.70967	7.76005	4.67886	7.46812	7.28979	6.84177	3.88542	3.26003	2.75509	19.27247	14.94207	11.51173
4270	1.99912	1.99156	1.67147	10.62624	9.84440	9.10791	11.70239	7.75631	4.68159	7.46746	7.29064	6.84087	3.88626	3.26351	2.75719	19.27692	14.94363	11.51414
4440	1.99908	1.99269	1.66734	10.62730	9.84513	9.10454	11.70831	7.75090	4.67756	7.46656	7.28816	6.83958	3.88352	3.25813	2.75605	19.27571	14.94244	11.51205
4600	2.00026	1.99539	1.67141	10.62542	9.84285	9.10416	11.71802	7.75766	4.68106	7.46208	7.28634	6.83742	3.88541	3.25873	2.75710	19.27234	14.93775	11.50962
4770	1.99854	1.99233	1.66736	10.62271	9.84192	9.10161	11.71241	7.75025	4.67382	7.46231	7.28434	6.83653	3.88248	3.25851	2.75885	19.27490	14.94210	11.51320
4930	1.99945	1.99147	1.67056	10.62552	9.84322	9.10282	11.69752	7.75615	4.67780	7.46265	7.28573	6.83751	3.88516	3.26114	2.75788	19.26472	14.93789	11.50849	36.76	5.9	0.00	-2.04	0.01731	0.01201	0.01519	0.01820	0.01881	0.01472	0.00548	0.01519	0.02008	0.01854	0.01290	0.01644	0.01709	0.01765	0.01379	0.00570	0.01604	0.02136
5090	2.00687	1.99844	1.67593	10.62318	9.84375	9.10439	11.72850	7.76241	4.68579	7.46365	7.28748	6.83662	3.89025	3.26489	2.75914	19.26848	14.93934	11.51051
5260	2.00443	1.99646	1.67462	10.62049	9.83757	9.09891	11.71953	7.76608	4.68519	7.45932	7.28030	6.83282	3.89111	3.26687	2.76615	19.26445	14.93529	11.50755
5420	2.01027	2.00304	1.67953	10.61826	9.83270	9.09745	11.72029	7.76815	4.69335	7.45711	7.27711	6.82994	3.89830	3.26945	2.76708	19.25424	14.92444	11.49831
5590	2.01316	2.00706	1.68576	10.60848	9.82738	9.09244	11.73124	7.78183	4.70210	7.45593	7.27543	6.82885	3.90400	3.27432	2.77008	19.25558	14.92762	11.49867
5750	2.01414	2.00354	1.68177	10.60691	9.82443	9.09054	11.73604	7.77455	4.69067	7.45264	7.27270	6.82606	3.89316	3.26582	2.76525	19.25813	14.92594	11.49538
5910	2.00764	1.99881	1.67664	10.60604	9.82414	9.08754	11.71778	7.76566	4.68392	7.45235	7.27155	6.82440	3.89165	3.26589	2.76451	19.25101	14.92886	11.50256
6080	2.00947	2.00196	1.67937	10.61140	9.82835	9.09289	11.73345	7.77727	4.69704	7.45195	7.27370	6.82549	3.90040	3.27830	2.77465	19.25719	14.92282	11.49539
6240	2.01901	2.01140	1.68948	10.60469	9.82378	9.08999	11.75463	7.78413	4.70132	7.45076	7.27867	6.82745	3.90412	3.27616	2.77207	19.25262	14.92412	11.49555
6400	2.01610	2.00641	1.68104	10.60885	9.82320	9.08948	11.73155	7.76781	4.69066	7.45204	7.27436	6.82782	3.89445	3.26760	2.76396	19.25262	14.93126	11.50019
6570	2.00682	1.99819	1.67676	10.60926	9.82535	9.09030	11.72132	7.76654	4.69247	7.45330	7.27573	6.82688	3.89341	3.27276	2.76971	19.25722	14.92756	11.49780	36.76	6.0	0.00	-2.04	0.01731	0.01200	0.01519	0.01820	0.01881	0.01472	0.00548	0.01519	0.02007	0.01854	0.01290	0.01645	0.01709	0.01764	0.01379	0.00570	0.01605	0.02136
6740	2.01287	2.00936	1.68570	10.60270	9.82246	9.08823	11.73334	7.78565	4.70453	7.45110	7.27112	6.82494	3.90958	3.28618	2.78356	19.26878	14.92051	11.49194
6900	2.02500	2.01594	1.69592	10.59566	9.81759	9.08473	11.75117	7.79587	4.71571	7.44798	7.26825	6.82129	3.91872	3.29262	2.78787	19.24366	14.91430	11.48564
7060	2.02997	2.02295	1.69946	10.58989	9.81175	9.08054	11.75529	7.80181	4.71409	7.44393	7.26527	6.81884	3.91944	3.28692	2.78386	19.24326	14.91736	11.49038
7220	2.02015	2.01073	1.68515	10.59956	9.81837	9.08683	11.74118	7.77407	4.69256	7.44735	7.27364	6.82491	3.89306	3.26361	2.75654	19.25494	14.92733	11.50054
7390	1.99613	1.98611	1.66337	10.61702	9.83565	9.10039	11.68473	7.73671	4.66167	7.46200	7.28718	6.83762	3.86777	3.24675	2.74767	19.27147	14.93879	11.51160
7550	1.99170	1.98344	1.66192	10.63489	9.84123	9.10648	11.70346	7.74212	4.66685	7.46499	7.29066	6.84340	3.87299	3.24871	2.75008	19.27698	14.94600	11.51905
7720	1.99568	1.98889	1.66822	10.63522	9.85083	9.10941	11.69944	7.74837	4.67390	7.47034	7.29529	6.84479	3.87468	3.24921	2.74689	19.28708	14.94974	11.52073
7880	1.99347	1.98724	1.66418	10.63615	9.85088	9.11039	11.71531	7.74980	4.67045	7.47097	7.29550	6.84634	3.87309	3.24884	2.74645	19.27658	14.94832	11.51985
8050	1.99419	1.98561	1.66467	10.63345	9.84976	9.11066	11.73052	7.74329	4.66723	7.47024	7.29421	6.84506	3.87195	3.24915	2.74472	19.29005	14.94658	11.51823
8220	1.99404	1.98931	1.66553	10.63400	9.84879	9.10912	11.70617	7.74536	4.67213	7.46962	7.29440	6.84421	3.87529	3.25176	2.74746	19.27771	14.94418	11.51713	36.82	6.2	0.00	-2.04	0.01731	0.01200	0.01519	0.01820	0.01881	0.01472	0.00548	0.01519	0.02008	0.01854	0.01290	0.01644	0.01709	0.01765	0.01379	0.00570	0.01604	0.02136
8380	1.99144	1.98611	1.66203	10.63209	9.84702	9.10853	11.69737	7.74329	4.66769	7.46812	7.29244	6.84285	3.87523	3.25246	2.75089	19.27502	14.95296	11.52223
8540	1.99565	1.98512	1.66551	10.63660	9.85084	9.11174	11.69593	7.74818	4.67019	7.47108	7.29622	6.84495	3.87536	3.25134	2.74721	19.28068	14.94823	11.51701
8710	1.99429	1.98547	1.66396	10.63275	9.84987	9.10993	11.68501	7.74649	4.66953	7.47107	7.29495	6.84469	3.87533	3.25081	2.75040	19.27718	14.94435	11.51476
8870	1.99379	1.98619	1.66360	10.63223	9.84949	9.11102	11.69290	7.74857	4.66930	7.47172	7.29486	6.84550	3.87454	3.25050	2.74645	19.27866	14.94331	11.51437
9040	1.99387	1.98699	1.66565	10.62800	9.84556	9.10704	11.70018	7.74529	4.66767	7.46753	7.29152	6.84257	3.87393	3.25092	2.74970	19.27933	14.94835	11.51805
9210	1.99449	1.98761	1.66671	10.62997	9.84819	9.10839	11.68206	7.74806	4.67198	7.46950	7.29096	6.84388	3.87218	3.25072	2.74911	19.28337	14.94513	11.51425
9370	1.99488	1.98863	1.66659	10.63160	9.85023	9.11203	11.70222	7.74898	4.67609	7.47360	7.29631	6.84757	3.87938	3.25359	2.74892	19.29631	14.94904	11.51889
9530	1.99386	1.98658	1.66483	10.62963	9.84803	9.10880	11.67479	7.74686	4.67028	7.46978	7.29297	6.84322	3.87442	3.24799	2.74303	19.27435	14.94235	11.51369
9700	1.99298	1.98557	1.66589	10.62909	9.84657	9.10818	11.68789	7.74478	4.66804	7.46917	7.29352	6.84378	3.87439	3.25124	2.74970	19.28418	14.94916	11.51832
9860	1.99849	1.98801	1.66852	10.63167	9.85006	9.10998	11.70857	7.75255	4.67280	7.47190	7.29427	6.84666	3.87890	3.25245	2.75022	19.27828	14.94492	11.51385	36.76	6.2	0.00	-2.04	0.01731	0.01201	0.01519	0.01819	0.01881	0.01471	0.00548	0.01519	0.02008	0.01854	0.01290	0.01644	0.01709	0.01765	0.01379	0.00570	0.01604	0.02136
10030	1.99298	1.98989	1.66755	10.63025	9.84763	9.10884	11.70834	7.74956	4.67382	7.47116	7.29461	6.84525	3.87846	3.25265	2.74934	19.27437	14.94196	11.51441
10190	1.99584	1.98408	1.66427	10.62850	9.84709	9.10546	11.69014	7.74042	4.66746	7.46714	7.29171	6.84139	3.87306	3.24761	2.74722	19.27545	14.93765	11.50859
10350	1.99065	1.98550	1.66504	10.62464	9.84784	9.10742	11.69476	7.74944	4.67236	7.47131	7.29535	6.84546	3.87737	3.25187	2.74897	19.27356	14.94518	11.51186
10520	1.99476	1.98727	1.66419	10.62798	9.84692	9.10498	11.69878	7.74304	4.66616	7.46754	7.29175	6.84296	3.87472	3.25017	2.74549	19.28110	14.94359	11.51389
10680	1.99596	1.98838	1.66509	10.62839	9.84658	9.10522	11.70007	7.74984	4.67196	7.46899	7.29193	6.84265	3.87243	3.24988	2.74866	19.26939	14.94298	11.51010
10850	1.99228	1.98427	1.66314	10.62470	9.84474	9.10105	11.69787	7.74258	4.66396	7.46646	7.28975	6.84060	3.87617	3.25051	2.75036	19.27680	14.94599	11.51327
11010	1.99609	1.98964	1.66334	10.62761	9.84702	9.10564	11.70295	7.74779	4.66882	7.46816	7.29166	6.84214	3.87737	3.25020	2.74812	19.26361	14.93854	11.50927
11170	1.99398	1.98517	1.66731	10.62733	9.84739	9.10650	11.70644	7.74537	4.67337	7.47087	7.29430	6.84558	3.87690	3.25162	2.74943	19.28474	14.94312	11.51165
11340	1.99360	1.98743	1.66370	10.62641	9.84539	9.10594	11.69158	7.74525	4.66953	7.46971	7.29234	6.84237	3.87497	3.25153	2.74964	19.28380	14.94454	11.51515
11500	1.99415	1.98714	1.66508	10.62851	9.84752	9.10748	11.71042	7.74579	4.67007	7.46994	7.29271	6.84502	3.87269	3.24845	2.74673	19.27772	14.94067	11.51066	36.82	6.0	0.00	-2.04	0.01731	0.01201	0.01519	0.01819	0.01881	0.01472	0.00548	0.01519	0.02008	0.01854	0.01290	0.01644	0.01709	0.01765	0.01379	0.00570	0.01604	0.02136
11670	1.99263	1.98862	1.66573	10.62780	9.84799	9.10884	11.71049	7.74897	4.67237	7.47308	7.29459	6.84697	3.87442	3.24904	2.74801	19.27799	14.94470	11.51443
11830	1.99240	1.98564	1.66312	10.62716	9.84675	9.10811	11.69903	7.74668	4.66589	7.46938	7.29083	6.84293	3.87120	3.25040	2.74756	19.26251	14.94328	11.51441
12000	1.99302	1.98515	1.66546	10.62580	9.84660	9.10714	11.70366	7.74746	4.66738	7.47140	7.29294	6.84281	3.87285	3.24807	2.74659	19.27260	14.94311	11.51063
12160	1.99162	1.98518	1.66332	10.62386	9.84360	9.10407	11.68630	7.73648	4.66444	7.46729	7.28939	6.84220	3.87314	3.25120	2.74727	19.26709	14.94389	11.51549
12330	1.99479	1.98950	1.66523	10.62782	9.84795	9.10880	11.69380	7.74635	4.67028	7.47163	7.29408	6.84595	3.87309	3.24915	2.74504	19.27812	14.94224	11.51216
12490	1.99400	1.98743	1.66544	10.62579	9.84570	9.10702	11.69873	7.75001	4.67367	7.46898	7.29225	6.84241	3.87536	3.25378	2.75261	19.26534	14.93338	11.50616
12660	2.00000	1.99647	1.67324	10.62179	9.84375	9.10251	11.72250	7.75845	4.68193	7.46477	7.28752	6.83829	3.88471	3.26154	2.75936	19.26104	14.93341	11.50418
12820	2.00235	1.99592	1.67446	10.61716	9.83909	9.09810	11.71619	7.75737	4.68476	7.46240	7.28340	6.83517	3.88644	3.26584	2.76376	19.25418	14.92681	11.49671
12990	2.00907	2.00424	1.68375	10.60398	9.82869	9.09293	11.74213	7.78245	4.70471	7.46077	7.27472	6.83118	3.90743	3.28429	2.78500	19.24640	14.92160	11.48756
13160	2.01766	2.01046	1.69139	10.59706	9.82023	9.08924	11.74149	7.78710	4.71216	7.46075	7.27176	6.82859	3.91411	3.29021	2.78678	19.25006	14.91676	11.48394	36.76	6.0	0.00	-2.04	0.01730	0.01200	0.01518	0.01820	0.01881	0.01472	0.00547	0.01517	0.02006	0.01855	0.01290	0.01645	0.01707	0.01763	0.01377	0.00570	0.01605	0.02137
13320	2.02985	2.02328	1.70292	10.58449	9.81141	9.08030	11.75966	7.80806	4.72852	7.45343	7.26381	6.82113	3.92919	3.30435	2.80114	19.23746	14.90620	11.47534
13480	2.04224	2.03279	1.70987	10.57375	9.80042	9.07189	11.78038	7.82258	4.74019	7.44176	7.25459	6.81468	3.94488	3.31168	2.80664	19.24135	14.90075	11.47364
13630	2.03972	2.02316	1.69918	10.57895	9.80376	9.07815	11.76676	7.78060	4.69028	7.44677	7.26830	6.82728	3.88964	3.25092	2.74405	19.25006	14.92754	11.50097
13800	1.98078	1.96903	1.64692	10.62581	9.84755	9.11216	11.65403	7.69951	4.63507	7.47927	7.29577	6.84426	3.84814	3.23528	2.73804	19.27384	14.94314	11.50811
13970	2.00233	2.00378	1.68718	10.61169	9.82942	9.09803	11.75027	7.80560	4.73331	7.45881	7.27504	6.82586	3.94861	3.32450	2.81892	19.24792	14.91668	11.48696
14120	2.05419	2.03961	1.71360	10.59165	9.81446	9.08636	11.78720	7.81430	4.72239	7.45134	7.27044	6.82756	3.92396	3.28082	2.77343	19.25651	14.92656	11.50328
14280	2.00704	1.98820	1.66397	10.62655	9.84752	9.11253	11.69440	7.72439	4.64058	7.47177	7.30131	6.85432	3.84772	3.22069	2.72100	19.28797	14.96116	11.53096
14450	1.97352	1.96966	1.65149	10.64156	9.85602	9.11489	11.67219	7.73195	4.66583	7.47097	7.29148	6.84052	3.87960	3.26174	2.76206	19.26255	14.92601	11.49732
14610	2.01822	2.01625	1.69823	10.59887	9.81989	9.08940	11.74614	7.80795	4.73482	7.45086	7.26644	6.82296	3.94369	3.31726	2.81453	19.23424	14.90478	11.47518
14770	2.05127	2.03828	1.71633	10.58108	9.80571	9.07529	11.77542	7.81953	4.73019	7.44442	7.25973	6.82052	3.93324	3.29207	2.78679	19.23149	14.91033	11.48454	36.76	6.5	0.00	-2.04	0.01729	0.01199	0.01517	0.01821	0.01882	0.01473	0.00547	0.01516	0.02004	0.01855	0.01290	0.01645	0.01706	0.01761	0.01376	0.00571	0.01606	0.02138
14920	2.02091	2.00528	1.67933	10.59723	9.82058	9.08990	11.71068	7.74297	4.66147	7.45526	7.28308	6.84101	3.86692	3.23218	2.73184	19.27442	14.93485	11.50724
15080	1.97965	1.96940	1.64760	10.62535	9.84475	9.10548	11.65960	7.71084	4.63163	7.47174	7.29567	6.84799	3.84124	3.21607	2.71145	19.26555	14.94927	11.52153
15250	1.96870	1.96190	1.64357	10.63914	9.85655	9.11372	11.66437	7.71851	4.64889	7.47373	7.29395	6.84225	3.87110	3.25543	2.75957	19.26139	14.93812	11.50573
15420	2.01631	2.01182	1.69232	10.60998	9.83105	9.09561	11.74079	7.79131	4.71519	7.45940	7.27496	6.83139	3.92645	3.30284	2.79969	19.24650	14.91680	11.48740
15570	2.04309	2.03689	1.71164	10.58594	9.81224	9.08084	11.77764	7.81899	4.73736	7.44963	7.26343	6.82184	3.94807	3.31282	2.80833	19.24140	14.90886	11.47856
15720	2.04337	2.02702	1.70088	10.59225	9.81589	9.08363	11.73476	7.77694	4.68822	7.45166	7.27844	6.83639	3.88498	3.24629	2.74179	19.25226	14.93650	11.51137
15890	1.98096	1.96647	1.64510	10.63730	9.85539	9.14344	11.64719	7.69367	4.62238	7.52243	7.29377	6.87936	3.82934	3.20796	2.71092	19.29999	14.95436	11.52432
16060	1.97155	1.97261	1.65530	10.63593	9.85413	9.10750	11.69510	7.74146	4.67300	7.46871	7.28002	6.83496	3.89476	3.28156	2.78521	19.26300	14.92714	11.49427
16220	2.03692	2.03608	1.71348	10.59463	9.81526	9.08328	11.79106	7.83335	4.76032	7.45382	7.25469	6.82604	3.97136	3.33562	2.82967	19.23404	14.90295	11.47223
16370	2.05628	2.04315	1.71870	10.57955	9.81023	9.07639	11.80783	7.82629	4.73630	7.44350	7.26449	6.82017	3.93808	3.29903	2.79447	19.23116	14.91098	11.48368	36.76	6.5	0.00	-2.04	0.01728	0.01199	0.01517	0.01821	0.01883	0.01473	0.00546	0.01515	0.02003	0.01856	0.01291	0.01646	0.01705	0.01761	0.01376	0.00571	0.01606	0.02138
16520	2.02460	2.00725	1.68099	10.60422	9.82997	9.09632	11.68533	7.74225	4.65884	7.46219	7.29071	6.84875	3.86456	3.22558	2.72663	19.26453	14.94719	11.52230
16690	1.96780	1.95375	1.63256	10.64321	9.86534	9.12801	11.60189	7.67530	4.61408	7.49296	7.31349	6.86286	3.82665	3.21294	2.71758	19.28281	14.94522	11.51342
16860	1.98550	1.98916	1.67469	10.62309	9.83587	9.10098	11.71926	7.77697	4.70598	7.46020	7.27933	6.83235	3.92236	3.30064	2.80123	19.25836	14.91782	11.48449
17010	2.04766	2.04357	1.72082	10.58737	9.81216	9.08135	11.78778	7.82613	4.73696	7.44593	7.26639	6.82449	3.93345	3.29266	2.78451	19.24978	14.91453	11.49130
17160	2.01509	1.99158	1.66441	10.61430	9.83991	9.10724	11.66848	7.71346	4.63520	7.47392	7.30003	6.85928	3.83744	3.20516	2.70261	19.28766	14.95781	11.53026
17330	1.95406	1.95273	1.63702	10.64712	9.86189	9.11412	11.61742	7.70749	4.64246	7.46975	7.28714	6.83696	3.87461	3.26825	2.77739	19.26950	14.92853	11.49539
17490	2.04122	2.03953	1.72049	10.59159	9.81229	9.08338	11.80522	7.84250	4.75077	7.44749	7.26824	6.82414	3.95353	3.31228	2.80237	19.24053	14.91268	11.48937
17640	2.02962	2.01069	1.68089	10.60817	9.83198	9.09868	11.69414	7.73498	4.64905	7.46638	7.29800	6.85226	3.85017	3.21534	2.71038	19.28994	14.95529	11.52754
17810	1.96063	1.95536	1.63887	10.64367	9.85918	9.11356	11.63343	7.70865	4.64476	7.47063	7.28866	6.83959	3.86594	3.25626	2.76331	19.26279	14.92472	11.48984
17960	2.02516	2.03023	1.71520	10.59234	9.81469	9.08446	11.78277	7.83392	4.74884	7.44754	7.26878	6.82498	3.95042	3.30662	2.80206	19.24573	14.91355	11.48351	36.82	6.7	0.00	-2.04	0.01727	0.01198	0.01517	0.01822	0.01883	0.01473	0.00546	0.01514	0.02002	0.01856	0.01291	0.01646	0.01704	0.01760	0.01375	0.00571	0.01607	0.02139
18110	2.02787	2.00875	1.68273	10.60317	9.82797	9.09431	11.68473	7.73708	4.65531	7.46410	7.28693	6.85060	3.85609	3.21587	2.71478	19.28156	14.95262	11.52423
18270	1.95802	1.95120	1.63149	10.64030	9.86150	9.12252	11.62881	7.68783	4.62850	7.47791	7.29382	6.84118	3.85041	3.24009	2.74857	19.26611	14.92461	11.49043
18430	2.01071	2.00989	1.69301	10.58941	9.80799	9.07697	11.76284	7.81126	4.73213	7.44076	7.25965	6.81720	3.94949	3.31554	2.80904	19.22592	14.89367	11.46785
18580	2.04331	2.02484	1.69854	10.57904	9.80416	9.07489	11.72409	7.77051	4.68164	7.44648	7.26905	6.82742	3.87933	3.23766	2.73606	19.24452	14.92547	11.49979
18730	1.97177	1.96065	1.63543	10.62159	9.84714	9.10836	11.63190	7.67791	4.60773	7.47851	7.30171	6.85269	3.81618	3.19769	2.69849	19.27403	14.94467	11.51172
18900	1.95795	1.95765	1.64225	10.61852	9.83438	9.09005	11.67129	7.71427	4.65235	7.45464	7.26902	6.82255	3.87950	3.26815	2.77156	19.24211	14.91329	11.48194
19060	2.02141	2.02096	1.70195	10.58400	9.80844	9.07612	11.76483	7.81083	4.72619	7.44250	7.26302	6.82044	3.93801	3.30192	2.79797	19.22044	14.89943	11.47477
19210	2.02828	2.01458	1.68756	10.58843	9.81120	9.08332	11.71197	7.75264	4.66485	7.45155	7.27588	6.83122	3.86798	3.23227	2.72677	19.25176	14.92374	11.50246
19380	1.96852	1.95861	1.63649	10.62694	9.85022	9.10972	11.63047	7.68019	4.61691	7.47788	7.30003	6.85152	3.82626	3.21164	2.71766	19.26101	14.92807	11.49503
19540	1.97105	1.97483	1.65753	10.60493	9.81600	9.08077	11.67935	7.75044	4.68461	7.44178	7.26254	6.81719	3.90448	3.28865	2.78722	19.22363	14.89453	11.46602	36.76	5.9	0.00	-2.04	0.01727	0.01198	0.01516	0.01822	0.01883	0.01474	0.00546	0.01513	0.02001	0.01856	0.01291	0.01646	0.01703	0.01759	0.01375	0.00571	0.01607	0.02139
19700	2.03759	2.02962	1.70890	10.57838	9.80043	9.06723	11.77333	7.80253	4.71634	7.43804	7.25590	6.81666	3.92032	3.28252	2.77620	19.22671	14.89738	11.47239
19850	2.00891	1.99131	1.66824	10.59131	9.81685	9.08334	11.68337	7.72376	4.64144	7.45716	7.28369	6.83775	3.84729	3.21514	2.71250	19.25214	14.93127	11.50330
20020	1.95939	1.95111	1.62988	10.62651	9.84670	9.10703	11.61949	7.67858	4.61808	7.47199	7.28978	6.84051	3.83266	3.21990	2.72556	19.25428	14.92102	11.48981
20180	1.98582	1.98682	1.67125	10.59152	9.81051	9.07344	11.71909	7.76887	4.69821	7.44372	7.26167	6.81873	3.91556	3.29450	2.79283	19.22176	14.89028	11.46540
20340	2.04055	2.03265	1.70891	10.57427	9.79761	9.06613	11.76712	7.80741	4.71761	7.43805	7.25857	6.81755	3.91715	3.27831	2.77106	19.22230	14.89387	11.47191
20490	2.00449	1.98909	1.66259	10.59060	9.81499	9.08269	11.69014	7.71989	4.63571	7.46197	7.28276	6.83904	3.84364	3.20651	2.70561	19.26125	14.93205	11.51043
20660	1.95193	1.94545	1.62680	10.62982	9.84932	9.10538	11.61579	7.67774	4.61477	7.47181	7.28817	6.84163	3.83369	3.22246	2.72903	19.24798	14.92088	11.48524
20820	1.98879	1.99346	1.67640	10.59060	9.81041	9.07397	11.72619	7.77608	4.70599	7.44308	7.26110	6.81736	3.92461	3.30085	2.79870	19.20974	14.88887	11.46374
20970	2.04198	2.03259	1.70902	10.57488	9.79940	9.06759	11.76014	7.80458	4.71430	7.43805	7.25474	6.81540	3.91389	3.27480	2.76961	19.22457	14.89468	11.47030
21130	2.00449	1.98469	1.66038	10.59214	9.81574	9.08748	11.65581	7.70485	4.62914	7.45991	7.28780	6.84712	3.83547	3.19861	2.69819	19.26677	14.94518	11.51025	36.76	6.4	0.00	-2.04	0.01727	0.01198	0.01516	0.01822	0.01883	0.01474	0.00546	0.01514	0.02002	0.01856	0.01291	0.01646	0.01704	0.01760	0.01375	0.00571	0.01607	0.02139
21300	1.94676	1.94566	1.62794	10.63323	9.84589	9.10719	11.62827	7.68109	4.61932	7.46707	7.29083	6.83733	3.83676	3.22396	2.73092	19.25778	14.91825	11.49254
21470	1.98905	1.99119	1.67746	10.59633	9.82066	9.08797	11.71266	7.77540	4.70201	7.45743	7.27341	6.82972	3.91351	3.29491	2.79483	19.23581	14.90142	11.47282
21630	2.03658	2.03111	1.70740	10.57808	9.80230	9.07240	11.76539	7.81383	4.72808	7.44705	7.25953	6.82068	3.93787	3.30694	2.80519	19.22231	14.88996	11.46154
21780	2.04401	2.03094	1.70862	10.57040	9.79941	9.06792	11.76883	7.80196	4.71535	7.44109	7.25766	6.81656	3.92025	3.28295	2.77666	19.21910	14.89356	11.46462
21930	2.01123	1.99624	1.67169	10.57959	9.80328	9.07360	11.69370	7.73353	4.65142	7.44730	7.27181	6.83322	3.85487	3.22196	2.71985	19.23555	14.91467	11.48967
22090	1.96332	1.95339	1.63481	10.61166	9.83531	9.09528	11.64052	7.68856	4.61862	7.46367	7.28844	6.84012	3.83203	3.20739	2.71005	19.24585	14.91652	11.49140
22250	1.96076	1.95468	1.63723	10.60971	9.83336	9.09092	11.63008	7.68911	4.61983	7.46084	7.28476	6.83865	3.83583	3.21175	2.71457	19.25912	14.92844	11.50396
22410	1.96234	1.95470	1.63745	10.62747	9.84228	9.10783	11.64112	7.68716	4.62017	7.47589	7.29485	6.85216	3.82966	3.20685	2.70774	19.26744	14.93142	11.50407
22580	1.96217	1.95758	1.63909	10.62338	9.84647	9.10767	11.65718	7.69531	4.62290	7.47554	7.29710	6.85188	3.83356	3.21216	2.71235	19.26342	14.93246	11.50936
22740	1.97130	1.96760	1.64688	10.62416	9.84599	9.10882	11.65739	7.71096	4.63946	7.47569	7.29821	6.85327	3.84481	3.22140	2.71947	19.26057	14.93130	11.50593	36.76	6.1	0.00	-2.04	0.01729	0.01199	0.01517	0.01821	0.01882	0.01473	0.00547	0.01516	0.02004	0.01856	0.01291	0.01646	0.01706	0.01761	0.01376	0.00571	0.01606	0.02138
22910	1.96963	1.96385	1.64591	10.62731	9.84775	9.10906	11.63916	7.70850	4.63636	7.47668	7.30029	6.85346	3.84756	3.22479	2.72539	19.25815	14.93752	11.51320
23070	1.97508	1.96833	1.64774	10.63381	9.85473	9.11594	11.67709	7.71029	4.64141	7.48282	7.30519	6.85702	3.84645	3.22230	2.72434	19.26070	14.93891	11.51234
23230	1.97149	1.96766	1.64650	10.63161	9.85405	9.11329	11.65951	7.70895	4.63749	7.48137	7.30135	6.85634	3.84411	3.21887	2.72022	19.26057	14.93313	11.51025
23400	1.96976	1.96207	1.64458	10.62731	9.84788	9.11012	11.67140	7.70876	4.63431	7.47842	7.30134	6.85507	3.83966	3.21824	2.71841	19.27064	14.93246	11.50535
23560	1.96907	1.96219	1.64813	10.62774	9.85099	9.11305	11.68309	7.70953	4.64003	7.48039	7.30188	6.85610	3.84390	3.22244	2.72258	19.25627	14.93420	11.50839
23720	1.96984	1.96399	1.64588	10.62474	9.84605	9.10659	11.65360	7.70835	4.63455	7.47610	7.29803	6.85294	3.84313	3.22047	2.71893	19.26459	14.93535	11.50964
23890	1.97051	1.96410	1.64371	10.62545	9.84626	9.10765	11.65746	7.70475	4.63593	7.47485	7.29585	6.85164	3.84351	3.22001	2.71756	19.26513	14.92824	11.50502
24050	1.96719	1.96193	1.64212	10.61920	9.83892	9.10299	11.66868	7.70753	4.63480	7.47149	7.29346	6.84729	3.84472	3.22354	2.72294	19.25520	14.93304	11.50861
24220	1.97207	1.96460	1.64635	10.62182	9.84060	9.10560	11.66299	7.71123	4.63756	7.47400	7.29520	6.84983	3.84114	3.21910	2.72103	19.26043	14.92876	11.50580
24380	1.97791	1.96966	1.65200	10.61703	9.83794	9.10501	11.67965	7.71709	4.64602	7.47374	7.29362	6.84873	3.84883	3.22681	2.72460	19.24423	14.92500	11.50011	36.76	6.2	0.00	-2.04	0.01730	0.01200	0.01518	0.01821	0.01882	0.01472	0.00547	0.01517	0.02005	0.01855	0.01290	0.01645	0.01707	0.01763	0.01377	0.00571	0.01605	0.02137
24550	1.97588	1.96654	1.64938	10.61362	9.83329	9.09932	11.65043	7.71307	4.64020	7.47014	7.29010	6.84655	3.84995	3.22670	2.72822	19.25227	14.93284	11.50441
24710	1.97703	1.97010	1.64923	10.61591	9.83759	9.10246	11.67200	7.71375	4.64252	7.47227	7.29194	6.84864	3.84663	3.22546	2.72165	19.25281	14.92709	11.50041
24870	1.97591	1.96685	1.65111	10.61650	9.83918	9.10230	11.67276	7.71529	4.64052	7.47386	7.29380	6.85024	3.84667	3.22735	2.72287	19.27484	14.92975	11.50098
25040	1.97622	1.96720	1.64742	10.61562	9.83579	9.10132	11.67124	7.71030	4.64051	7.47081	7.29170	6.84631	3.85167	3.22815	2.72913	19.24785	14.92795	11.50292
25200	1.97790	1.96776	1.65070	10.61762	9.83838	9.10377	11.66935	7.71577	4.64060	7.47230	7.29171	6.84712	3.84903	3.22645	2.72536	19.24704	14.92477	11.50012
25370	1.97704	1.97189	1.65299	10.61955	9.84132	9.10509	11.67776	7.71825	4.64495	7.47544	7.29550	6.85164	3.84916	3.22750	2.72679	19.25469	14.93058	11.50537
25530	1.97586	1.96998	1.65036	10.61858	9.83807	9.10368	11.65331	7.71357	4.64167	7.47263	7.29251	6.84912	3.84958	3.22800	2.72701	19.26113	14.93298	11.50745
25700	1.97783	1.97003	1.65225	10.62224	9.84191	9.10566	11.65739	7.71640	4.64330	7.47574	7.29642	6.85081	3.85064	3.23105	2.72697	19.25509	14.93894	11.51183
25860	1.97873	1.97108	1.65240	10.62716	9.84880	9.11082	11.68458	7.71444	4.64559	7.47900	7.29841	6.85377	3.84980	3.22777	2.72766	19.25241	14.93565	11.50900
26030	1.98217	1.97326	1.65593	10.62417	9.84503	9.10804	11.68048	7.71804	4.64850	7.47522	7.29564	6.85152	3.85466	3.23339	2.73064	19.26861	14.93477	11.50573	36.82	6.1	0.00	-2.04	0.01730	0.01200	0.01519	0.01820	0.01881	0.01472	0.00547	0.01518	0.02006	0.01855	0.01290	0.01645	0.01708	0.01763	0.01378	0.00570	0.01605	0.02137
26190	1.98073	1.96987	1.65347	10.62214	9.84242	9.10453	11.67116	7.71994	4.64320	7.47335	7.29416	6.84776	3.84930	3.22819	2.72679	19.24578	14.92653	11.50120
26350	1.97564	1.97158	1.65228	10.61690	9.84117	9.10406	11.68608	7.72362	4.65016	7.47349	7.29340	6.84896	3.85760	3.23197	2.73208	19.25343	14.93081	11.50460
26520	1.98067	1.97148	1.65276	10.62076	9.83929	9.10323	11.66790	7.71645	4.64362	7.47228	7.29499	6.84757	3.84903	3.22614	2.72644	19.25396	14.92774	11.50180
26680	1.97784	1.97098	1.65505	10.61808	9.84169	9.10909	11.66579	7.72847	4.65119	7.47921	7.29629	6.85311	3.85620	3.23229	2.72881	19.25880	14.93463	11.50820
26840	1.98006	1.97412	1.65481	10.61993	9.84136	9.10483	11.68017	7.72097	4.64683	7.47367	7.29350	6.84960	3.85511	3.23020	2.73011	19.25383	14.92953	11.50576
27010	1.97937	1.97234	1.65448	10.61947	9.84106	9.10388	11.68290	7.71647	4.64580	7.47260	7.29337	6.84838	3.85143	3.22999	2.72955	19.25880	14.93107	11.50429
27170	1.97883	1.97167	1.65150	10.61689	9.83757	9.10126	11.67176	7.71841	4.64419	7.47173	7.29195	6.84654	3.85414	3.23227	2.73147	19.25047	14.93448	11.50853
27340	1.98145	1.97346	1.65349	10.62168	9.84326	9.10581	11.68116	7.71982	4.64626	7.47348	7.29502	6.85038	3.85279	3.22900	2.72867	19.25370	14.93153	11.50395
27500	1.98038	1.97463	1.65599	10.62342	9.84730	9.10927	11.69026	7.72247	4.64989	7.47748	7.29957	6.85296	3.85522	3.23100	2.73110	19.27130	14.93460	11.50978
27670	1.98318	1.97416	1.65409	10.62154	9.84094	9.10658	11.68174	7.72101	4.64864	7.47400	7.29487	6.84938	3.85860	3.23552	2.73401	19.25768	14.93460	11.50886	36.76	6.1	0.00	-2.04	0.01731	0.01200	0.01519	0.01820	0.01881	0.01472	0.00548	0.01518	0.02007	0.01854	0.01290	0.01645	0.01708	0.01764	0.01378	0.00570	0.01605	0.02136
27830	1.98201	1.97627	1.65608	10.62254	9.84291	9.10707	11.67712	7.72218	4.65027	7.47534	7.29634	6.85201	3.85696	3.23304	2.72945	19.27314	14.93517	11.50583
27990	1.98242	1.97642	1.65390	10.62039	9.84070	9.10598	11.67349	7.72409	4.65136	7.47512	7.29562	6.84848	3.85453	3.23119	2.73370	19.25970	14.92942	11.50285
28160	1.97996	1.97329	1.65555	10.61778	9.84045	9.10371	11.65829	7.72290	4.64863	7.47334	7.29281	6.84876	3.85496	3.23320	2.73134	19.26077	14.92785	11.50178
28320	1.98088	1.97411	1.65753	10.62010	9.84340	9.10736	11.68387	7.72596	4.65457	7.47556	7.29594	6.85035	3.85879	3.23504	2.73349	19.26064	14.93555	11.50709
28490	1.98009	1.97203	1.65537	10.61867	9.84038	9.10379	11.66895	7.72356	4.64952	7.47104	7.29230	6.84711	3.85541	3.23293	2.73412	19.26252	14.93257	11.50332
28650	1.98038	1.97492	1.65676	10.61827	9.83860	9.10380	11.67909	7.72320	4.64863	7.47184	7.29308	6.84853	3.85277	3.23261	2.73171	19.25594	14.93037	11.50348
28810	1.97850	1.96997	1.65477	10.61659	9.83689	9.10384	11.66381	7.71976	4.64539	7.47148	7.29255	6.84705	3.85486	3.23415	2.73068	19.26360	14.93260	11.50565
28980	1.98104	1.97457	1.65400	10.61959	9.84070	9.10587	11.67561	7.71906	4.64956	7.47513	7.29185	6.85049	3.85827	3.23738	2.73654	19.27180	14.93541	11.50929
29140	1.98411	1.97631	1.65845	10.62348	9.84309	9.10969	11.68008	7.72605	4.65319	7.47682	7.29538	6.85071	3.85830	3.23377	2.73233	19.25862	14.93355	11.50752
29310	1.98416	1.97606	1.65738	10.61763	9.83713	9.10235	11.67964	7.72560	4.64823	7.47298	7.29088	6.84636	3.85475	3.23441	2.73469	19.26567	14.92808	11.50470	36.76	6.2	0.00	-2.04	0.01731	0.01201	0.01519	0.01820	0.01881	0.01472	0.00548	0.01519	0.02008	0.01854	0.01290	0.01645	0.01709	0.01765	0.01379	0.00570	0.01604	0.02136
29470	1.98295	1.97579	1.65722	10.61714	9.83691	9.10304	11.68381	7.72027	4.65026	7.47177	7.29060	6.84589	3.85807	3.23838	2.73640	19.25774	14.93344	11.50840
29640	1.98500	1.97565	1.65815	10.62033	9.84009	9.10621	11.67041	7.72347	4.65180	7.47394	7.29312	6.84837	3.85824	3.23307	2.73494	19.26715	14.92982	11.50502
29800	1.97930	1.97529	1.65789	10.61784	9.83927	9.10734	11.67245	7.72587	4.65243	7.47464	7.29245	6.84900	3.85775	3.23448	2.73304	19.25398	14.92904	11.50427
29960	1.98219	1.97668	1.65335	10.61680	9.83561	9.10214	11.66739	7.71984	4.64978	7.47212	7.28898	6.84599	3.85653	3.23523	2.73439	19.24848	14.93213	11.50463
30130	1.98148	1.97340	1.65579	10.61681	9.83761	9.10362	11.68752	7.72446	4.64948	7.47215	7.28958	6.84547	3.85525	3.23533	2.73272	19.25049	14.92797	11.50134
30290	1.98039	1.97476	1.65656	10.61348	9.83503	9.09998	11.67261	7.72064	4.64705	7.47143	7.28736	6.84529	3.85974	3.23834	2.73722	19.25788	14.93150	11.50463
30460	1.98593	1.97608	1.65662	10.61758	9.83725	9.10307	11.66837	7.72243	4.65251	7.47459	7.29097	6.84804	3.85852	3.23532	2.73489	19.25828	14.92519	11.49809
30620	1.97921	1.97216	1.65707	10.61262	9.83431	9.09975	11.67510	7.72250	4.64973	7.47100	7.28934	6.84576	3.85617	3.23296	2.73011	19.25492	14.92386	11.49964
30790	1.97994	1.97308	1.65751	10.61480	9.83557	9.09953	11.66482	7.71918	4.64997	7.47141	7.28955	6.84649	3.85704	3.23373	2.73289	19.25063	14.92441	11.50022
30950	1.98354	1.97555	1.65713	10.61539	9.83569	9.10004	11.67515	7.72622	4.65062	7.47130	7.29079	6.84512	3.85722	3.23479	2.73386	19.24953	14.92427	11.50077	36.76	6.1	0.00	-2.04	0.01731	0.01201	0.01520	0.01819	0.01881	0.01472	0.00548	0.01519	0.02008	0.01854	0.01290	0.01644	0.01709	0.01765	0.01379	0.00570	0.01604	0.02136
31120	1.98391	1.97439	1.65707	10.61436	9.83631	9.09901	11.67167	7.72300	4.65225	7.47198	7.28912	6.84609	3.85728	3.23359	2.73440	19.25356	14.92158	11.49730
31280	1.98328	1.97691	1.66034	10.61644	9.83999	9.10199	11.67257	7.72727	4.65223	7.47355	7.29264	6.84795	3.86022	3.23791	2.73802	19.24913	14.92433	11.49910
31450	1.98285	1.97579	1.65824	10.61506	9.83652	9.09786	11.66766	7.72736	4.64750	7.47110	7.28917	6.84469	3.85824	3.23616	2.73449	19.24712	14.92569	11.50067
31610	1.98550	1.97958	1.65946	10.61661	9.83837	9.09951	11.68097	7.72808	4.65036	7.47301	7.29127	6.84726	3.85628	3.23412	2.73237	19.24416	14.92193	11.49858
31780	1.98523	1.98044	1.66029	10.61733	9.83938	9.10298	11.69317	7.72704	4.65345	7.47549	7.29291	6.85026	3.85902	3.23647	2.73544	19.24685	14.92497	11.49977
31940	1.98281	1.97740	1.65761	10.61469	9.83613	9.09973	11.67076	7.72651	4.65157	7.47053	7.29078	6.84580	3.85713	3.23393	2.72932	19.25276	14.92051	11.49629
32110	1.98251	1.97396	1.65664	10.61361	9.83347	9.09749	11.67477	7.72075	4.64999	7.47103	7.28802	6.84506	3.85748	3.23512	2.73468	19.24497	14.92442	11.50100
32270	1.98482	1.97679	1.65807	10.61556	9.83700	9.10063	11.68771	7.73174	4.65114	7.47329	7.29012	6.84661	3.85891	3.23371	2.73364	19.24685	14.92251	11.49700
32430	1.98086	1.97450	1.65868	10.61207	9.83535	9.09882	11.67552	7.72506	4.65281	7.47394	7.29130	6.84604	3.85831	3.23499	2.73269	19.25450	14.92355	11.49634
32600	1.98403	1.97586	1.65567	10.61073	9.83273	9.09605	11.67656	7.71824	4.64997	7.46952	7.28714	6.84455	3.85637	3.23192	2.73230	19.24576	14.91882	11.49552	36.76	6.1	0.00	-2.04	0.01731	0.01201	0.01520	0.01819	0.01881	0.01471	0.00548	0.01519	0.02008	0.01854	0.01290	0.01644	0.01709	0.01765	0.01379	0.00570	0.01604	0.02136
32760	1.98284	1.97553	1.65791	10.61302	9.83357	9.09752	11.66900	7.72560	4.64915	7.46968	7.28811	6.84603	3.85610	3.23394	2.73125	19.24643	14.91738	11.49307
32930	1.98230	1.97232	1.65470	10.60857	9.83083	9.09288	11.66386	7.72107	4.64828	7.46670	7.28514	6.84305	3.85822	3.23735	2.73698	19.24844	14.92218	11.49942
33090	1.98543	1.97830	1.66016	10.61591	9.83759	9.09802	11.69049	7.72364	4.65390	7.47145	7.28962	6.84722	3.85708	3.23381	2.73246	19.24455	14.91851	11.49344
33250	1.98398	1.97656	1.65964	10.61517	9.83793	9.09977	11.69383	7.72844	4.65413	7.47315	7.29123	6.84793	3.85770	3.23393	2.73311	19.24992	14.92177	11.49713
33420	1.98320	1.97422	1.65609	10.61230	9.83481	9.09493	11.67754	7.72773	4.65052	7.47017	7.28932	6.84448	3.85693	3.23377	2.73327	19.25744	14.92122	11.49710
33580	1.98136	1.97457	1.65705	10.61400	9.83599	9.09692	11.67459	7.71996	4.64936	7.47113	7.29021	6.84644	3.85618	3.23269	2.73064	19.24428	14.91972	11.49524
33750	1.98164	1.97624	1.65623	10.61365	9.83703	9.09792	11.68057	7.72338	4.65122	7.47261	7.28979	6.84641	3.85665	3.23531	2.73315	19.23597	14.91807	11.49591
33910	1.98128	1.97338	1.65497	10.61310	9.83499	9.09756	11.69049	7.71991	4.64986	7.46993	7.29062	6.84628	3.85367	3.23348	2.73092	19.25449	14.91585	11.49353
34080	1.98390	1.97806	1.65858	10.61551	9.84001	9.10244	11.67210	7.72602	4.65460	7.47472	7.29360	6.85006	3.85953	3.23734	2.73573	19.24710	14.91952	11.49621
34240	1.98173	1.97516	1.65677	10.61312	9.83651	9.09715	11.66531	7.72515	4.65155	7.47085	7.29041	6.84675	3.86111	3.23447	2.73522	19.24284	14.92021	11.49901	36.76	6.1	0.00	-2.04	0.01732	0.01201	0.01520	0.01819	0.01880	0.01471	0.00548	0.01520	0.02008	0.01854	0.01289	0.01644	0.01710	0.01765	0.01379	0.00570	0.01604	0.02136
34400	1.98345	1.97609	1.65774	10.61518	9.83709	9.09975	11.68710	7.72896	4.65466	7.47235	7.29245	6.84747	3.85466	3.23428	2.73303	19.23935	14.91483	11.49418
34570	1.98372	1.97560	1.66040	10.61311	9.83859	9.10042	11.67113	7.72671	4.65444	7.47484	7.29351	6.84995	3.85771	3.23452	2.73434	19.25613	14.92084	11.49588
34730	1.98472	1.97728	1.65758	10.61251	9.83278	9.09643	11.69035	7.72118	4.65128	7.47255	7.29078	6.84704	3.85547	3.23179	2.72964	19.23693	14.91295	11.49154
34890	1.98194	1.97700	1.65873	10.61216	9.83660	9.10117	11.67446	7.72540	4.65271	7.47497	7.29292	6.85058	3.86031	3.23572	2.73557	19.24096	14.91853	11.49464
35060	1.98412	1.97565	1.65699	10.61094	9.83416	9.09786	11.67597	7.72474	4.64763	7.47103	7.28944	6.84681	3.85814	3.23604	2.73388	19.25156	14.91856	11.49521
35220	1.98425	1.97450	1.65615	10.61070	9.83307	9.09980	11.67256	7.72482	4.65470	7.47365	7.29137	6.84857	3.86066	3.23575	2.73391	19.24364	14.91509	11.49364
35380	1.98075	1.97631	1.65446	10.60606	9.82892	9.09510	11.67181	7.72371	4.64989	7.47054	7.28719	6.84485	3.85720	3.23300	2.73511	19.23063	14.91602	11.49096
35550	1.98173	1.97465	1.65606	10.60678	9.83041	9.09457	11.68392	7.72162	4.64855	7.47024	7.28734	6.84538	3.85642	3.23439	2.73512	19.24123	14.91191	11.48992
35710	1.98182	1.97501	1.65450	10.60578	9.82864	9.09380	11.67862	7.71966	4.64788	7.47007	7.28619	6.84482	3.85342	3.23271	2.72921	19.23372	14.91018	11.48644
35880	1.96924	1.97102	1.65273	10.60826	9.83484	9.10192	11.67495	7.71598	4.65136	7.47530	7.29006	6.84590	3.85696	3.24025	2.74175	19.23871	14.91679	11.48890	36.76	5.8	0.00	-2.04	0.01730	0.01200	0.01519	0.01820	0.01882	0.01472	0.00547	0.01518	0.02006	0.01855	0.01290	0.01645	0.01708	0.01763	0.01378	0.00570	0.01605	0.02137
36050	1.99386	1.99200	1.67288	10.59647	9.82285	9.08713	11.70044	7.76091	4.69209	7.46507	7.27678	6.83601	3.89768	3.28167	2.78055	19.23992	14.90077	11.47273
36210	2.02349	2.01777	1.70034	10.57159	9.79954	9.07051	11.75772	7.80492	4.72594	7.45346	7.25949	6.82468	3.93724	3.31045	2.80594	19.20981	14.88467	11.45740
36370	2.04570	2.03349	1.71415	10.55875	9.78848	9.06719	11.76345	7.81541	4.73275	7.45259	7.25534	6.82304	3.93879	3.30772	2.80460	19.19832	14.87482	11.45046
36530	2.04484	2.03321	1.71209	10.55017	9.78177	9.05994	11.77232	7.81367	4.73192	7.44470	7.25057	6.81580	3.93805	3.30513	2.80285	19.19472	14.86511	11.44330
36690	2.03861	2.02534	1.70123	10.55127	9.78206	9.05618	11.76972	7.78895	4.69947	7.44012	7.25057	6.81439	3.90065	3.26868	2.76540	19.20513	14.87195	11.44675
36850	2.00454	1.98971	1.67146	10.56214	9.79020	9.05881	11.68268	7.73753	4.66386	7.44347	7.25719	6.82137	3.87320	3.24781	2.74753	19.21997	14.88190	11.46023
37010	1.99300	1.98243	1.66540	10.57691	9.80349	9.07238	11.69277	7.72870	4.65547	7.45057	7.27015	6.82899	3.86030	3.23634	2.73384	19.21876	14.89169	11.47031
37170	1.98515	1.97725	1.65972	10.59527	9.82236	9.08814	11.66935	7.72433	4.64708	7.46592	7.28677	6.84450	3.85230	3.22877	2.72598	19.23804	14.90640	11.48826
37340	1.97224	1.96355	1.64484	10.60528	9.83112	9.09849	11.64522	7.70116	4.63375	7.47047	7.28913	6.84622	3.83873	3.22024	2.72278	19.23148	14.91038	11.48592
37500	1.97760	1.97402	1.65788	10.60888	9.83431	9.09630	11.66973	7.71683	4.64457	7.47207	7.29148	6.84958	3.84771	3.22734	2.72788	19.24222	14.91235	11.49078	36.76	6.0	0.00	-2.04	0.01731	0.01200	0.01519	0.01820	0.01881	0.01472	0.00548	0.01518	0.02007	0.01854	0.01290	0.01645	0.01708	0.01764	0.01378	0.00570	0.01605	0.02137
37670	1.97652	1.96865	1.65332	10.60994	9.83446	9.09386	11.65718	7.71622	4.64686	7.46735	7.28972	6.84518	3.84841	3.22663	2.72696	19.24008	14.91015	11.48959
37830	1.97227	1.96744	1.65157	10.61084	9.82870	9.08922	11.66935	7.71240	4.64030	7.45379	7.28062	6.83487	3.85110	3.22827	2.72847	19.23351	14.91417	11.49188
38000	1.97699	1.96956	1.65199	10.61272	9.82939	9.08932	11.66481	7.71115	4.64118	7.45524	7.28338	6.83769	3.84809	3.22707	2.72652	19.23311	14.91013	11.48878
38160	1.97503	1.97033	1.65222	10.61129	9.83179	9.09164	11.66988	7.71266	4.63845	7.46354	7.28921	6.84405	3.84797	3.22392	2.72325	19.23753	14.90845	11.48888
38330	1.97566	1.96968	1.65196	10.61396	9.83703	9.09700	11.66489	7.71438	4.64280	7.47151	7.29333	6.85070	3.84831	3.22598	2.72678	19.22802	14.91423	11.49202
38490	1.97320	1.96702	1.65064	10.61123	9.83438	9.09481	11.66708	7.71072	4.63918	7.46996	7.28990	6.84817	3.84700	3.22526	2.72588	19.23592	14.91203	11.49230
38660	1.97497	1.96706	1.65043	10.61117	9.83356	9.09571	11.66375	7.71055	4.64038	7.47121	7.29002	6.84834	3.84842	3.22756	2.72587	19.24155	14.91321	11.49150
38820	1.97585	1.96887	1.65221	10.61324	9.83641	9.09678	11.66466	7.71006	4.64021	7.47412	7.29262	6.84957	3.85103	3.22941	2.72945	19.23981	14.91038	11.48965
38990	1.97553	1.96849	1.65034	10.61092	9.83257	9.09668	11.65687	7.70893	4.63734	7.47120	7.30670	6.85792	3.84570	3.22075	2.71886	19.24370	14.89406	11.47996
39150	1.97446	1.96795	1.64675	10.60473	9.83300	9.09430	11.66014	7.70826	4.63423	7.47249	7.29020	6.84640	3.84562	3.22254	2.72340	19.22628	14.90866	11.48551	36.82	6.0	0.00	-2.04	0.01731	0.01201	0.01519	0.01820	0.01881	0.01472	0.00548	0.01519	0.02007	0.01854	0.01290	0.01645	0.01709	0.01764	0.01379	0.00570	0.01605	0.02136
39310	1.97089	1.96787	1.65079	10.60661	9.83272	9.09510	11.67776	7.71364	4.64218	7.47351	7.29211	6.85023	3.84754	3.22629	2.72699	19.24263	14.91383	11.49267
39480	1.97448	1.96722	1.65111	10.61089	9.83195	9.09707	11.65953	7.70884	4.64160	7.47188	7.28822	6.84757	3.85088	3.22853	2.72807	19.23834	14.91213	11.48887
39640	1.97906	1.97026	1.65410	10.60979	9.83281	9.09555	11.66195	7.70998	4.64150	7.47351	7.29098	6.84851	3.85020	3.22564	2.72700	19.23030	14.91013	11.48829
39810	1.97665	1.96758	1.65111	10.60773	9.83084	9.09489	11.65228	7.71124	4.64068	7.47285	7.29135	6.84851	3.84782	3.22604	2.72569	19.22601	14.90701	11.48619
39970	1.97571	1.96692	1.65054	10.60406	9.82938	9.09307	11.64503	7.71029	4.63720	7.47193	7.28940	6.84799	3.84814	3.22377	2.72338	19.22815	14.90823	11.48425
40130	1.97581	1.96925	1.65342	10.60764	9.83243	9.09545	11.68102	7.71939	4.64281	7.47479	7.29110	6.85053	3.85246	3.22597	2.72588	19.24156	14.91146	11.48897
40300	1.97748	1.96737	1.65104	10.60632	9.82838	9.09087	11.65976	7.71000	4.63885	7.47085	7.28833	6.84677	3.84953	3.22612	2.72760	19.23137	14.90984	11.48913
40460	1.97682	1.96974	1.65054	10.60561	9.83036	9.09265	11.68034	7.71184	4.63988	7.47118	7.28877	6.84680	3.84752	3.22279	2.72560	19.23311	14.90517	11.48304
40630	1.97596	1.96821	1.65134	10.60406	9.82814	9.09280	11.67019	7.71250	4.63956	7.47115	7.28828	6.84781	3.84782	3.22394	2.72407	19.22494	14.90589	11.48383
40790	1.97656	1.96974	1.65155	10.60263	9.82605	9.09148	11.65913	7.71862	4.64080	7.47017	7.28722	6.84598	3.84795	3.22443	2.72682	19.22767	14.90149	11.48102	36.82	6.0	0.00	-2.04	0.01731	0.01201	0.01519	0.01819	0.01881	0.01471	0.00548	0.01519	0.02008	0.01854	0.01290	0.01644	0.01709	0.01765	0.01379	0.00570	0.01604	0.02136
40950	1.97559	1.96777	1.65298	10.60355	9.82860	9.09346	11.66253	7.71934	4.64327	7.47271	7.29003	6.84739	3.85209	3.22608	2.72560	19.23772	14.90475	11.48497
41120	1.97492	1.96758	1.65166	10.60379	9.82864	9.09463	11.67168	7.71353	4.64405	7.47226	7.28903	6.84655	3.84939	3.22472	2.72337	19.22124	14.90094	11.48394
41280	1.97494	1.96868	1.65185	10.60596	9.83200	9.09756	11.65936	7.72131	4.64268	7.47498	7.29232	6.84961	3.85228	3.22857	2.72818	19.22646	14.90882	11.49024
41450	1.97560	1.96936	1.65120	10.60255	9.82898	9.09346	11.64780	7.71348	4.63962	7.47251	7.28821	6.84777	3.84786	3.22723	2.72534	19.23491	14.90882	11.48739
41610	1.97694	1.96736	1.65025	10.60364	9.82825	9.09351	11.67501	7.71607	4.64089	7.47165	7.28848	6.84672	3.84752	3.22595	2.72610	19.23236	14.90726	11.48494
41770	1.97391	1.96621	1.64742	10.59765	9.82353	9.09060	11.66245	7.70967	4.63736	7.46886	7.28546	6.84324	3.84993	3.22790	2.72821	19.23571	14.90920	11.48903
41940	1.97631	1.97049	1.65298	10.60150	9.82740	9.09359	11.67017	7.71440	4.64317	7.47300	7.28856	6.84730	3.84969	3.23213	2.73040	19.23571	14.90880	11.48926
42100	1.97905	1.97159	1.65380	10.60517	9.82981	9.09931	11.66986	7.71969	4.64280	7.47535	7.29182	6.84996	3.85399	3.22939	2.72968	19.24081	14.91327	11.49043
42270	1.97806	1.97080	1.65169	10.60416	9.82991	9.09771	11.66177	7.72141	4.64379	7.47550	7.29191	6.85133	3.85061	3.22616	2.72688	19.24054	14.91229	11.49166
42430	1.97773	1.96846	1.64982	10.60192	9.82634	9.09550	11.66163	7.71216	4.64087	7.47305	7.28733	6.84687	3.84624	3.22370	2.72366	19.22160	14.90506	11.48603	36.76	6.0	0.00	-2.04	0.01731	0.01201	0.01520	0.01819	0.01880	0.01471	0.00548	0.01519	0.02008	0.01854	0.01289	0.01644	0.01709	0.01765	0.01379	0.00570	0.01604	0.02136
42590	1.97397	1.96824	1.65148	10.60027	9.82723	9.09632	11.67115	7.71804	4.64787	7.47623	7.29196	6.85087	3.85307	3.22923	2.72739	19.24613	14.91349	11.48977
42760	1.97801	1.96980	1.65010	10.60177	9.82851	9.09678	11.65566	7.70980	4.63958	7.47436	7.29037	6.84875	3.84839	3.22668	2.72787	19.23996	14.91285	11.49041
42920	1.97502	1.96928	1.65082	10.60366	9.82792	9.09603	11.67282	7.71417	4.64168	7.47518	7.29058	6.84934	3.85145	3.22805	2.72600	19.23178	14.90971	11.49024
43090	1.97618	1.96943	1.65070	10.60194	9.82692	9.09635	11.65989	7.71532	4.64151	7.47339	7.28734	6.84804	3.85149	3.23057	2.73117	19.23151	14.91430	11.49592
43250	1.97992	1.97226	1.65415	10.60673	9.83212	9.09939	11.67070	7.71592	4.64647	7.47619	7.29225	6.85067	3.85054	3.22757	2.72468	19.24144	14.91262	11.49161
43410	1.97739	1.96949	1.65408	10.60576	9.83165	9.09926	11.65664	7.71604	4.64574	7.47707	7.29319	6.85253	3.85062	3.22541	2.72646	19.23433	14.91340	11.49408
43580	1.97721	1.96912	1.65040	10.60504	9.83008	9.09765	11.66080	7.71144	4.63825	7.47503	7.28972	6.85033	3.84882	3.22593	2.72633	19.23701	14.91496	11.49409
43740	1.97585	1.96743	1.65165	10.60744	9.82978	9.09753	11.67962	7.71178	4.64236	7.47556	7.29125	6.84996	3.84828	3.22459	2.72536	19.23647	14.91132	11.49161
43910	1.97417	1.96545	1.64920	10.60277	9.82678	9.09516	11.64887	7.70929	4.63824	7.47416	7.28946	6.84959	3.85011	3.22767	2.72932	19.23393	14.91499	11.49485
44070	1.97979	1.97180	1.65319	10.60681	9.83312	9.09920	11.66543	7.71921	4.64166	7.47661	7.29249	6.85211	3.84845	3.22650	2.72646	19.24214	14.91190	11.49018	36.76	6.0	0.00	-2.04	0.01732	0.01201	0.01520	0.01819	0.01880	0.01471	0.00548	0.01520	0.02008	0.01854	0.01289	0.01644	0.01710	0.01765	0.01379	0.00570	0.01604	0.02135
44230	1.97604	1.96846	1.65320	10.60607	9.83166	9.09854	11.65886	7.72036	4.64463	7.47774	7.29340	6.85269	3.85095	3.22719	2.72309	19.22739	14.91334	11.49221
44400	1.97568	1.96681	1.65012	10.60265	9.82848	9.09596	11.66422	7.71183	4.64054	7.47514	7.29066	6.84964	3.85077	3.22893	2.72649	19.22913	14.91398	11.49182
44560	1.97454	1.96895	1.65089	10.60365	9.83012	9.09745	11.66173	7.71362	4.64272	7.47599	7.28971	6.84962	3.85006	3.22831	2.72665	19.23905	14.91314	11.49030
44730	1.97331	1.96683	1.65048	10.60365	9.82873	9.09517	11.66725	7.71063	4.64068	7.47600	7.29132	6.84989	3.85052	3.22920	2.72968	19.25113	14.91929	11.49793
44890	1.97901	1.97095	1.65299	10.60850	9.83420	9.10024	11.66657	7.71819	4.64667	7.47944	7.29433	6.85316	3.85126	3.22880	2.72629	19.24401	14.91678	11.49324
45060	1.97542	1.97109	1.65053	10.60425	9.83155	9.09719	11.66211	7.71020	4.64247	7.47838	7.29273	6.85107	3.84859	3.22642	2.72652	19.23959	14.91652	11.49188
45220	1.97759	1.96876	1.65290	10.60336	9.83232	9.09854	11.66173	7.71721	4.64176	7.47776	7.29200	6.85211	3.84950	3.22634	2.72825	19.24361	14.91467	11.49192
45390	1.97585	1.96827	1.65215	10.60337	9.82968	9.09823	11.66181	7.71336	4.64035	7.47650	7.29084	6.85137	3.84914	3.23042	2.73037	19.25946	14.92282	11.49675
45550	1.97848	1.97124	1.65303	10.61027	9.83717	9.10240	11.66861	7.71762	4.64490	7.48099	7.29648	6.85540	3.85043	3.22853	2.72698	19.25207	14.91848	11.49429
45710	1.97804	1.96845	1.65465	10.60652	9.83675	9.10234	11.67110	7.71624	4.64343	7.48176	7.29619	6.85611	3.85017	3.23026	2.72827	19.25965	14.92093	11.49613	36.76	6.2	0.00	-2.04	0.01732	0.01201	0.01520	0.01819	0.01880	0.01471	0.00548	0.01520	0.02008	0.01854	0.01289	0.01644	0.01710	0.01765	0.01379	0.00570	0.01604	0.02136
45880	1.97732	1.97215	1.65278	10.60514	9.83466	9.09827	11.66097	7.71362	4.64071	7.48256	7.29465	6.85226	3.84756	3.22767	2.72775	19.25146	14.91994	11.49649
46040	1.97693	1.96825	1.65176	10.60795	9.83573	9.10122	11.66580	7.71321	4.64210	7.48065	7.29598	6.85442	3.84893	3.22555	2.72500	19.24636	14.91786	11.49442
46210	1.97316	1.96793	1.64955	10.60632	9.83593	9.09937	11.66505	7.71148	4.63852	7.48021	7.29477	6.85385	3.84752	3.22896	2.73011	19.24756	14.92205	11.49961
46370	1.97732	1.96951	1.65371	10.61334	9.84069	9.10646	11.65976	7.71500	4.64055	7.48410	7.29988	6.85764	3.84976	3.22555	2.72553	19.26248	14.92003	11.49725
46530	1.97666	1.96984	1.65274	10.61142	9.83989	9.10477	11.64949	7.71590	4.64295	7.48355	7.29933	6.85801	3.84717	3.22667	2.72591	19.24085	14.92416	11.49762
46700	1.97615	1.96773	1.65042	10.61018	9.83809	9.10247	11.68138	7.71071	4.64026	7.48227	7.29814	6.85624	3.84886	3.22815	2.72722	19.25723	14.92547	11.50054
46860	1.97841	1.96849	1.65370	10.61430	9.84172	9.10433	11.66860	7.71379	4.64249	7.48544	7.29869	6.85805	3.84746	3.22376	2.72518	19.25481	14.92356	11.49652
47030	1.97868	1.97332	1.65579	10.61393	9.84393	9.10450	11.69327	7.72418	4.64891	7.48730	7.30058	6.85791	3.85589	3.23552	2.73747	19.24783	14.92205	11.49607
47200	1.98555	1.97858	1.66246	10.60594	9.83315	9.09674	11.67042	7.73587	4.66502	7.47805	7.29154	6.85109	3.87020	3.24681	2.74675	19.23978	14.91191	11.48487
47360	1.99329	1.98671	1.66571	10.59467	9.82371	9.09141	11.69443	7.73601	4.66314	7.47632	7.28832	6.84949	3.86947	3.24831	2.74604	19.23176	14.91223	11.48858	36.76	6.1	0.00	-2.04	0.01731	0.01201	0.01520	0.01819	0.01880	0.01471	0.00548	0.01519	0.02008	0.01854	0.01290	0.01644	0.01709	0.01765	0.01379	0.00570	0.01604	0.02136
47520	1.99246	1.98526	1.66726	10.59834	9.82878	9.09462	11.68398	7.73999	4.66574	7.47736	7.28837	6.84949	3.87040	3.24366	2.74284	19.23324	14.90911	11.48428
47690	1.99157	1.98365	1.66625	10.60072	9.83226	9.09912	11.69004	7.73419	4.65917	7.48219	7.29511	6.85548	3.86353	3.23701	2.73643	19.24773	14.91983	11.49131
47850	1.98388	1.97057	1.65945	10.60661	9.83188	9.09830	11.69352	7.72579	4.65245	7.48204	7.29398	6.85386	3.85878	3.23120	2.73260	19.24853	14.91405	11.48919
48010	1.97913	1.96918	1.65251	10.60346	9.83256	9.09702	11.66907	7.71260	4.64009	7.48152	7.29359	6.85376	3.84908	3.22506	2.72810	19.24840	14.92131	11.49567
48180	1.97571	1.96806	1.64835	10.61153	9.84162	9.10252	11.67111	7.70373	4.63472	7.48572	7.30149	6.85919	3.84370	3.22063	2.71930	19.25605	14.92281	11.49709
48340	1.97182	1.96646	1.65073	10.61249	9.84208	9.10410	11.66975	7.71201	4.63930	7.48529	7.30000	6.85926	3.84681	3.22371	2.72416	19.24988	14.92715	11.50093
48510	1.97498	1.96850	1.65083	10.61573	9.84412	9.10707	11.67157	7.71522	4.64049	7.48680	7.30273	6.85940	3.84950	3.22725	2.72846	19.25847	14.93103	11.50687
48670	1.97744	1.97156	1.65273	10.62067	9.84991	9.11169	11.67648	7.71680	4.64568	7.49189	7.30482	6.86372	3.85253	3.22664	2.72851	19.25726	14.93010	11.50465
48840	1.97688	1.96839	1.65023	10.61906	9.84738	9.10906	11.68156	7.71029	4.63909	7.49056	7.30338	6.86244	3.84586	3.22415	2.72362	19.24947	14.92573	11.50249
49000	1.97601	1.96979	1.65158	10.61766	9.84783	9.11066	11.67118	7.71559	4.64462	7.49250	7.30613	6.86488	3.84862	3.22547	2.72636	19.25361	14.93185	11.50547	36.82	6.2	0.00	-2.04	0.01731	0.01201	0.01520	0.01819	0.01880	0.01471	0.00548	0.01520	0.02008	0.01854	0.01290	0.01644	0.01710	0.01765	0.01379	0.00570	0.01604	0.02136
49170	1.97532	1.96951	1.65014	10.61871	9.84650	9.10783	11.66490	7.71403	4.64039	7.48963	7.30178	6.86214	3.84615	3.22703	2.72707	19.25791	14.92910	11.50628
49330	1.97758	1.96910	1.65245	10.61892	9.84664	9.10841	11.67519	7.71379	4.64189	7.49184	7.30363	6.86343	3.84691	3.22514	2.72236	19.26746	14.92768	11.50155
49500	1.97537	1.96929	1.65360	10.62034	9.85112	9.11194	11.67496	7.71355	4.64675	7.49464	7.30640	6.86542	3.85028	3.22635	2.72591	19.25711	14.93112	11.50579
49660	1.97563	1.96858	1.65135	10.62043	9.84818	9.10900	11.66604	7.71195	4.64193	7.49126	7.30340	6.86216	3.84859	3.22713	2.72771	19.25227	14.93306	11.50680
49820	1.97549	1.96933	1.65169	10.62372	9.85112	9.11147	11.67859	7.71483	4.64173	7.49291	7.30465	6.86417	3.84973	3.22354	2.72573	19.26154	14.93150	11.50574
49990	1.97520	1.96935	1.65171	10.62470	9.85273	9.11517	11.66528	7.71609	4.64639	7.49723	7.30905	6.86854	3.85041	3.22770	2.72751	19.26356	14.93549	11.50857
50150	1.97560	1.96893	1.64952	10.62336	9.85007	9.11106	11.65871	7.71338	4.63974	7.49438	7.30615	6.86599	3.84691	3.22458	2.72665	19.26127	14.93205	11.50582
50310	1.97522	1.96639	1.65084	10.62215	9.84864	9.11037	11.67292	7.70731	4.63824	7.49469	7.30375	6.86559	3.84463	3.22186	2.72087	19.25576	14.92901	11.50293
50480	1.97104	1.96320	1.64794	10.61806	9.84346	9.10663	11.65969	7.71209	4.63871	7.49046	7.30146	6.86268	3.84768	3.22494	2.72474	19.26114	14.93106	11.50545
50640	1.97419	1.96825	1.64918	10.61980	9.84828	9.11177	11.66112	7.70982	4.64023	7.49435	7.30404	6.86704	3.84730	3.22402	2.72433	19.25025	14.92476	11.50224	36.76	6.0	0.00	-2.04	0.01732	0.01201	0.01520	0.01819	0.01880	0.01471	0.00548	0.01520	0.02009	0.01854	0.01289	0.01644	0.01710	0.01765	0.01379	0.00570	0.01604	0.02136
50810	1.97412	1.96660	1.65236	10.62017	9.84940	9.11338	11.68199	7.71701	4.64004	7.49668	7.30645	6.86799	3.84851	3.22760	2.72532	19.26086	14.92841	11.50625
50970	1.97294	1.96798	1.65074	10.62043	9.84674	9.11118	11.66082	7.71156	4.63951	7.49506	7.30475	6.86634	3.84609	3.22331	2.72464	19.25602	14.92942	11.50623
51140	1.97323	1.96612	1.65065	10.61934	9.84645	9.11139	11.65833	7.71159	4.63954	7.49442	7.30451	6.86614	3.84771	3.22584	2.72622	19.25844	14.93026	11.50486
51300	1.97610	1.96615	1.65017	10.62162	9.84817	9.11285	11.65229	7.71173	4.64254	7.49742	7.30657	6.86860	3.84832	3.22444	2.72478	19.25226	14.93017	11.50451
51470	1.97340	1.96657	1.65074	10.62086	9.84791	9.11358	11.66157	7.71164	4.64097	7.49595	7.30618	6.86870	3.84686	3.22554	2.72536	19.26342	14.93231	11.50653
51630	1.97348	1.96630	1.65047	10.62060	9.84758	9.11116	11.66754	7.70928	4.63944	7.49417	7.30506	6.86673	3.84777	3.22352	2.72387	19.25213	14.92945	11.50670
51800	1.97386	1.96740	1.65002	10.62019	9.84689	9.11071	11.66301	7.71009	4.63924	7.49602	7.30526	6.86764	3.84505	3.22304	2.72285	19.25737	14.92904	11.50422
51960	1.97448	1.96379	1.64867	10.61993	9.84697	9.11142	11.65463	7.71383	4.64041	7.49544	7.30511	6.86738	3.84910	3.22608	2.72524	19.25455	14.92933	11.50623
52130	1.97362	1.96713	1.65036	10.61886	9.84588	9.11118	11.65825	7.70606	4.63998	7.49388	7.30431	6.86676	3.84646	3.22478	2.72680	19.25495	14.93356	11.50802
52290	1.97639	1.96541	1.64958	10.62058	9.84889	9.11098	11.65879	7.70870	4.63911	7.49518	7.30521	6.86694	3.84554	3.22342	2.72210	19.26248	14.92843	11.50352	36.76	6.0	0.00	-2.04	0.01732	0.01201	0.01520	0.01819	0.01880	0.01471	0.00548	0.01520	0.02009	0.01854	0.01289	0.01644	0.01710	0.01765	0.01379	0.00570	0.01604	0.02135
52460	1.97520	1.97021	1.65398	10.62088	9.84966	9.11384	11.68071	7.71589	4.64349	7.49687	7.30676	6.86793	3.84853	3.22510	2.72677	19.25831	14.93072	11.50636
52620	1.97466	1.96827	1.64903	10.61835	9.84525	9.10893	11.65615	7.71210	4.63905	7.49245	7.30311	6.86492	3.84764	3.22876	2.72777	19.24635	14.93069	11.50879
52780	1.97451	1.96746	1.65131	10.62182	9.84860	9.11179	11.65147	7.71497	4.64195	7.49567	7.30602	6.86834	3.84691	3.22382	2.72407	19.25401	14.92779	11.50345
52950	1.97430	1.96626	1.64978	10.61586	9.84559	9.10904	11.67126	7.70899	4.63985	7.49288	7.30665	6.86692	3.84477	3.22096	2.72319	19.24649	14.92426	11.50033
53110	1.97070	1.96352	1.64808	10.61556	9.84323	9.10635	11.67027	7.70948	4.63737	7.49077	7.30108	6.86383	3.84718	3.22565	2.72609	19.25804	14.92878	11.50530
53280	1.97611	1.96730	1.65144	10.61975	9.84818	9.11148	11.66234	7.71411	4.64047	7.49543	7.30581	6.86867	3.84610	3.22409	2.72166	19.26059	14.92464	11.50265
53440	1.97496	1.96908	1.65336	10.62213	9.85113	9.11421	11.67148	7.71655	4.64444	7.49782	7.30943	6.87085	3.84882	3.22697	2.72445	19.25858	14.93228	11.50668
53610	1.97395	1.96705	1.64801	10.62088	9.84874	9.11222	11.64868	7.71023	4.64020	7.49537	7.30635	6.86765	3.84915	3.22384	2.72373	19.25938	14.93251	11.50830
53770	1.97340	1.96604	1.64842	10.62182	9.84939	9.11264	11.68692	7.70924	4.64063	7.49622	7.30668	6.86860	3.84539	3.22355	2.72254	19.24958	14.92759	11.50410
53940	1.97285	1.96801	1.65022	10.62126	9.84923	9.11421	11.66756	7.71414	4.64041	7.49804	7.30813	6.86947	3.84711	3.22215	2.72264	19.26086	14.93003	11.50535	36.76	6.2	0.00	-2.04	0.01732	0.01201	0.01520	0.01819	0.01880	0.01471	0.00548	0.01520	0.02009	0.01854	0.01289	0.01644	0.01710	0.01765	0.01379	0.00570	0.01604	0.02135
54100	1.97150	1.96552	1.64812	10.61845	9.84719	9.11051	11.66393	7.71096	4.63687	7.49545	7.30480	6.86621	3.84470	3.22261	2.72194	19.25374	14.92801	11.50422
54260	1.97434	1.96519	1.64863	10.61820	9.84680	9.11126	11.67293	7.71348	4.64019	7.49699	7.30712	6.86773	3.84338	3.22378	2.72209	19.25535	14.92939	11.50323
54430	1.97088	1.96600	1.65314	10.61762	9.84744	9.11452	11.67625	7.71814	4.64407	7.50126	7.31178	6.87270	3.85184	3.22793	2.72749	19.25347	14.93180	11.50878
54590	1.97722	1.96749	1.65090	10.62234	9.84995	9.11385	11.66537	7.71023	4.64122	7.49815	7.30915	6.86990	3.84852	3.22613	2.72581	19.26785	14.93177	11.50744
54750	1.97360	1.96885	1.65038	10.62206	9.84935	9.11460	11.66476	7.71292	4.63899	7.49815	7.30850	6.86890	3.84700	3.22240	2.72187	19.25387	14.92803	11.50403
54920	1.97120	1.96443	1.64755	10.61785	9.84516	9.10946	11.66159	7.70773	4.63663	7.49546	7.30566	6.86814	3.84507	3.22359	2.72535	19.25361	14.93374	11.50854
55080	1.97426	1.96862	1.65065	10.62337	9.84990	9.11409	11.67996	7.71436	4.63960	7.49801	7.31137	6.87221	3.84765	3.22350	2.72264	19.26100	14.93287	11.50645
55250	1.97078	1.96460	1.64814	10.62300	9.85038	9.11442	11.67073	7.71202	4.64208	7.49771	7.30988	6.87099	3.84675	3.22176	2.72149	19.26436	14.93052	11.50830
55410	1.97130	1.96559	1.64613	10.62343	9.85083	9.11343	11.67134	7.71001	4.63801	7.49867	7.30968	6.87101	3.84678	3.22439	2.72095	19.25710	14.93203	11.50875
55570	1.97271	1.96588	1.64898	10.62501	9.85318	9.11647	11.65827	7.70973	4.63837	7.49992	7.31167	6.87326	3.84727	3.22109	2.72302	19.26074	14.93579	11.51155	36.82	6.1	0.00	-2.04	0.01732	0.01201	0.01520	0.01819	0.01880	0.01471	0.00548	0.01520	0.02009	0.01854	0.01289	0.01644	0.01710	0.01765	0.01380	0.00570	0.01604	0.02135
55740	1.97284	1.96609	1.64785	10.62598	9.85163	9.11758	11.65744	7.70753	4.63858	7.50120	7.31237	6.87223	3.84685	3.22202	2.72434	19.27769	14.93698	11.51301
55900	1.97176	1.96636	1.65009	10.62690	9.85297	9.11689	11.66650	7.71187	4.63773	7.50163	7.30995	6.87283	3.84699	3.22321	2.72391	19.27082	14.93339	11.51124
56070	1.97592	1.96695	1.64970	10.62607	9.85251	9.11607	11.67936	7.71041	4.63937	7.50211	7.31219	6.87407	3.84562	3.22386	2.72564	19.26127	14.93672	11.51054
56230	1.97316	1.96752	1.65019	10.62550	9.85326	9.11696	11.68110	7.71566	4.63995	7.50170	7.31207	6.87345	3.84603	3.22409	2.72270	19.26934	14.93426	11.51161
56400	1.97238	1.96804	1.64857	10.62683	9.85352	9.11741	11.65925	7.71078	4.64045	7.50099	7.31216	6.87356	3.84687	3.22310	2.72295	19.26517	14.93452	11.51093
56560	1.97318	1.96873	1.65272	10.62737	9.85308	9.11718	11.67489	7.71632	4.64134	7.50172	7.31222	6.87627	3.84816	3.22369	2.72547	19.26692	14.93420	11.51171
56730	1.97327	1.96526	1.65014	10.62577	9.85221	9.11609	11.65601	7.71379	4.64021	7.50153	7.31235	6.87326	3.84635	3.22357	2.72491	19.27486	14.93611	11.51429
56890	1.97483	1.96791	1.64914	10.62927	9.85524	9.11822	11.66900	7.71428	4.64376	7.50311	7.31332	6.87477	3.84680	3.22515	2.72218	19.26679	14.93855	11.51224
57060	1.97340	1.96884	1.65092	10.63011	9.85829	9.12057	11.65231	7.71413	4.64403	7.50702	7.31617	6.87787	3.84950	3.22718	2.72515	19.26759	14.94188	11.51607
57220	1.97529	1.96730	1.64855	10.63145	9.85635	9.12086	11.66388	7.70937	4.63685	7.50447	7.31340	6.87536	3.84549	3.22411	2.72353	19.25947	14.93785	11.51259	36.76	6.1	0.00	-2.04	0.01732	0.01201	0.01520	0.01819	0.01880	0.01471	0.00548	0.01520	0.02009	0.01854	0.01289	0.01644	0.01710	0.01766	0.01380	0.00570	0.01604	0.02135
57390	1.97346	1.96775	1.65109	10.62878	9.85590	9.11899	11.65361	7.70738	4.63855	7.50373	7.31316	6.87647	3.84565	3.22234	2.72300	19.26337	14.93739	11.51283
57550	1.97428	1.96679	1.64960	10.62754	9.85388	9.11732	11.67310	7.71004	4.63842	7.50454	7.31376	6.87570	3.84596	3.22361	2.72224	19.26028	14.93745	11.51240
57720	1.97235	1.96632	1.65022	10.62709	9.85568	9.11824	11.66834	7.71226	4.63876	7.50384	7.31245	6.87624	3.84579	3.22233	2.72045	19.26203	14.93524	11.51084
57880	1.97204	1.96588	1.64874	10.62677	9.85621	9.11965	11.67484	7.70844	4.64022	7.50521	7.31352	6.87592	3.84769	3.22526	2.72299	19.25410	14.93776	11.51263
58040	1.97343	1.96652	1.64913	10.62655	9.85431	9.11750	11.64615	7.70941	4.63986	7.50432	7.31474	6.87620	3.84652	3.22498	2.72486	19.25450	14.93852	11.51721
58210	1.97312	1.96509	1.64942	10.63212	9.85822	9.12060	11.67144	7.71095	4.64105	7.50749	7.31577	6.87953	3.84565	3.22518	2.72332	19.25652	14.94095	11.51634
58370	1.97342	1.96709	1.64983	10.63257	9.86238	9.12564	11.64773	7.71541	4.64367	7.51073	7.31921	6.88290	3.84661	3.22282	2.72357	19.26633	14.94092	11.51812
58540	1.97361	1.96558	1.64819	10.63151	9.86007	9.11973	11.65648	7.70981	4.63913	7.50664	7.31587	6.87710	3.84720	3.22738	2.72707	19.27898	14.94597	11.52061
58700	1.97456	1.96893	1.64999	10.63303	9.86255	9.12478	11.66955	7.70805	4.64153	7.50845	7.31838	6.88042	3.84557	3.22130	2.72468	19.26364	14.94017	11.51603
58870	1.97547	1.96832	1.65062	10.63349	9.86324	9.12692	11.67165	7.71803	4.64397	7.51049	7.32092	6.88285	3.84849	3.22546	2.72332	19.27891	14.94214	11.51879	36.87	6.2	0.00	-2.04	0.01732	0.01201	0.01520	0.01819	0.01880	0.01471	0.00548	0.01520	0.02009	0.01854	0.01289	0.01644	0.01710	0.01766	0.01380	0.00570	0.01604	0.02135
59030	1.97472	1.96594	1.64926	10.63269	9.86029	9.12214	11.66681	7.71069	4.63884	7.50759	7.31804	6.87915	3.84576	3.22421	2.72708	19.26303	14.94052	11.51791
59200	1.97422	1.96678	1.64878	10.63266	9.85955	9.12126	11.65986	7.71145	4.63912	7.50574	7.31682	6.87938	3.84340	3.22013	2.71933	19.25671	14.93620	11.51253
59360	1.96973	1.96454	1.64467	10.62584	9.85356	9.11651	11.64869	7.70323	4.63349	7.50380	7.31454	6.87593	3.84690	3.22328	2.72644	19.26505	14.94162	11.51782
59520	1.97573	1.96738	1.65112	10.63275	9.86142	9.12449	11.65760	7.70960	4.63751	7.50927	7.31928	6.88225	3.84408	3.22328	2.72449	19.26666	14.93945	11.51567
59690	1.97315	1.96819	1.64816	10.63184	9.85983	9.12304	11.66009	7.70970	4.63858	7.50774	7.31872	6.88161	3.84558	3.22389	2.72282	19.26653	14.93626	11.51657
59850	1.97139	1.96753	1.64692	10.63099	9.85807	9.11973	11.64816	7.70598	4.63385	7.50572	7.31704	6.87872	3.84190	3.22069	2.72343	19.25510	14.93872	11.51684
60020	1.97295	1.96574	1.65119	10.63357	9.86119	9.12309	11.67044	7.71227	4.63816	7.50825	7.31990	6.88133	3.84651	3.22737	2.72544	19.26599	14.94162	11.51854
60180	1.97743	1.97115	1.65146	10.63466	9.86340	9.12539	11.66862	7.71278	4.64076	7.51051	7.32076	6.88263	3.84958	3.22300	2.72364	19.26303	14.94342	11.51702
60350	1.97281	1.96790	1.64986	10.62985	9.85896	9.12124	11.66515	7.70702	4.63724	7.50652	7.31837	6.87908	3.84393	3.22192	2.72068	19.26007	14.93811	11.51389
60510	1.97108	1.96616	1.64829	10.62866	9.85670	9.11890	11.65330	7.70639	4.63654	7.50575	7.31727	6.87818	3.84658	3.22461	2.72436	19.26056	14.93849	11.51744	36.82	6.1	0.00	-2.04	0.01732	0.01201	0.01520	0.01819	0.01880	0.01471	0.00548	0.01520	0.02009	0.01854	0.01289	0.01644	0.01710	0.01766	0.01380	0.00570	0.01604	0.02135
60680	1.97374	1.96827	1.65165	10.63207	9.85937	9.12393	11.66674	7.71353	4.63979	7.50892	7.32044	6.88198	3.84582	3.22124	2.72205	19.26499	14.93993	11.51629
60840	1.97080	1.96639	1.65059	10.63069	9.86109	9.12377	11.66523	7.70989	4.63889	7.50919	7.31982	6.88106	3.84697	3.22396	2.72232	19.25988	14.93956	11.51592
61000	1.97112	1.96513	1.64701	10.63044	9.85845	9.12166	11.65707	7.70634	4.63611	7.50644	7.31816	6.87887	3.84441	3.22236	2.72275	19.26190	14.94040	11.51712
61170	1.97073	1.96620	1.64705	10.63103	9.85949	9.12242	11.66704	7.70709	4.63546	7.50797	7.31869	6.87992	3.84284	3.21848	2.72094	19.26580	14.93736	11.51584
61330	1.97052	1.96379	1.64495	10.63046	9.85747	9.12142	11.65006	7.70133	4.63233	7.50603	7.31943	6.88018	3.84545	3.22501	2.72302	19.27563	14.94445	11.52169
61500	1.97190	1.96534	1.64802	10.63454	9.86333	9.12698	11.66591	7.70600	4.63598	7.50928	7.32118	6.88282	3.84355	3.21836	2.72001	19.27994	14.94130	11.51642
61660	1.97358	1.96938	1.65045	10.63384	9.86436	9.12775	11.67816	7.71513	4.63935	7.51166	7.32255	6.88486	3.84551	3.22470	2.72305	19.26715	14.94332	11.51933
61830	1.97131	1.96401	1.64774	10.63332	9.86119	9.12399	11.66138	7.70811	4.63562	7.50968	7.32145	6.88210	3.84503	3.22488	2.72110	19.26567	14.94521	11.52065
61990	1.97199	1.96721	1.64819	10.63295	9.86342	9.12613	11.65783	7.70597	4.63684	7.50994	7.32248	6.88201	3.84186	3.21892	2.72119	19.25894	14.94022	11.51632
62150	1.97226	1.96659	1.64802	10.63197	9.86275	9.12571	11.65163	7.71008	4.63807	7.51059	7.32264	6.88337	3.84559	3.22283	2.71908	19.26484	14.94248	11.51932	36.82	6.1	0.00	-2.04	0.01732	0.01201	0.01520	0.01819	0.01880	0.01471	0.00548	0.01520	0.02009	0.01854	0.01289	0.01644	0.01710	0.01766	0.01380	0.00570	0.01604	0.02135
62320	1.97017	1.96342	1.64865	10.63265	9.86261	9.12640	11.67073	7.70340	4.64066	7.51039	7.32187	6.88370	3.84355	3.22187	2.71873	19.26444	14.94170	11.51865
62480	1.97135	1.96472	1.64918	10.63203	9.86237	9.12674	11.64801	7.70831	4.63704	7.51165	7.32247	6.88458	3.84312	3.22194	2.72323	19.26565	14.94054	11.51958
62650	1.97137	1.96309	1.64617	10.63156	9.85929	9.12229	11.65034	7.70235	4.63463	7.50811	7.31955	6.88172	3.84441	3.22310	2.72649	19.26525	14.94474	11.52271
62810	1.97139	1.96965	1.64988	10.63366	9.86193	9.12717	11.65321	7.70936	4.63994	7.51026	7.32075	6.88469	3.84582	3.22292	2.72032	19.27521	14.93990	11.51832
62980	1.97126	1.96432	1.64857	10.63185	9.85967	9.12568	11.66650	7.70610	4.63777	7.51015	7.32124	6.88229	3.84424	3.22164	2.72308	19.26229	14.94135	11.51769
63140	1.97158	1.96544	1.65050	10.63231	9.86078	9.12566	11.65759	7.70688	4.63736	7.51087	7.32172	6.88407	3.84424	3.22159	2.72241	19.27507	14.94057	11.51564
63310	1.96972	1.96651	1.65160	10.62926	9.86110	9.12494	11.67126	7.70777	4.63905	7.51063	7.32187	6.88354	3.84259	3.22190	2.72070	19.26700	14.93947	11.51775
63470	1.97187	1.96462	1.64787	10.62882	9.85779	9.11928	11.67323	7.70313	4.63645	7.50821	7.31746	6.87997	3.84495	3.22243	2.72072	19.25369	14.93564	11.51628
63640	1.97212	1.96623	1.64714	10.63102	9.85744	9.12255	11.66219	7.70901	4.63737	7.50691	7.32104	6.88056	3.84147	3.21866	2.71757	19.25167	14.93544	11.51377
63800	1.96909	1.96507	1.64890	10.62757	9.85804	9.12384	11.66271	7.70836	4.63873	7.50888	7.32064	6.88259	3.84582	3.22368	2.72149	19.27121	14.93916	11.51555	36.82	6.2	0.00	-2.04	0.01732	0.01201	0.01520	0.01819	0.01880	0.01471	0.00548	0.01520	0.02009	0.01854	0.01289	0.01644	0.01710	0.01766	0.01380	0.00570	0.01604	0.02135
63970	1.97048	1.96294	1.64800	10.62897	9.85696	9.12119	11.66619	7.70506	4.63173	7.50657	7.31821	6.88099	3.84367	3.22236	2.72161	19.26274	14.94104	11.51771
64130	1.97278	1.96532	1.64875	10.63014	9.85984	9.12262	11.65871	7.70581	4.63762	7.50888	7.32026	6.88247	3.84273	3.22138	2.72006	19.25736	14.93832	11.51354
64290	1.97066	1.96324	1.65029	10.63022	9.85917	9.12392	11.64928	7.71169	4.63890	7.50946	7.32154	6.88122	3.84334	3.22262	2.72045	19.25333	14.93785	11.51479
64460	1.97114	1.96379	1.64717	10.62819	9.85522	9.11902	11.64860	7.70613	4.63460	7.50621	7.31754	6.87818	3.84329	3.22473	2.72198	19.26529	14.93881	11.51491
64620	1.97193	1.96498	1.64894	10.63074	9.85781	9.12518	11.65418	7.70318	4.63511	7.50951	7.31993	6.88135	3.84146	3.22002	2.71927	19.26476	14.93814	11.51401
64790	1.97171	1.96615	1.64990	10.63113	9.86054	9.12569	11.64709	7.70962	4.63957	7.51106	7.32209	6.88451	3.84487	3.22299	2.72251	19.26933	14.94284	11.51870
64950	1.97014	1.96334	1.64687	10.63001	9.85909	9.12513	11.66135	7.70423	4.63660	7.50741	7.31908	6.88106	3.84468	3.22477	2.72295	19.26207	14.94081	11.51801
65120	1.97007	1.96600	1.64774	10.63207	9.86051	9.12577	11.65177	7.70566	4.63547	7.51013	7.32139	6.88223	3.83955	3.22016	2.71754	19.26086	14.93962	11.51503
65280	1.97083	1.96282	1.64927	10.63309	9.86075	9.12605	11.65328	7.70975	4.63847	7.51240	7.32349	6.88490	3.84140	3.22044	2.71892	19.27902	14.94350	11.51614
65450	1.97042	1.96194	1.64654	10.62822	9.85786	9.12073	11.66870	7.70156	4.63088	7.50778	7.31873	6.87994	3.84034	3.21875	2.71747	19.26114	14.93749	11.51355	36.82	6.1	0.00	-2.04	0.01732	0.01201	0.01520	0.01819	0.01880	0.01471	0.00548	0.01520	0.02009	0.01854	0.01289	0.01644	0.01710	0.01766	0.01380	0.00570	0.01604	0.02135
65610	1.97048	1.96372	1.64533	10.62761	9.85604	9.12249	11.66553	7.70217	4.63438	7.50658	7.31876	6.87966	3.84193	3.21824	2.71627	19.25872	14.93373	11.51271
65770	1.96908	1.95990	1.64605	10.62670	9.85472	9.12036	11.65111	7.69888	4.63318	7.50541	7.31775	6.87903	3.84258	3.21989	2.71837	19.26827	14.93680	11.51298
65940	1.96975	1.96360	1.64642	10.62870	9.85737	9.12330	11.65450	7.70205	4.63669	7.50846	7.32012	6.88164	3.84385	3.22139	2.72252	19.27554	14.94346	11.51787
66100	1.97319	1.96722	1.64844	10.63196	9.86172	9.12613	11.64877	7.70739	4.63662	7.51062	7.32178	6.88333	3.84305	3.22225	2.71883	19.26706	14.94013	11.51541
66270	1.97085	1.96201	1.64767	10.62813	9.85826	9.12364	11.67044	7.69995	4.63310	7.50876	7.31929	6.88115	3.84197	3.22166	2.71743	19.26060	14.93532	11.51367
66430	1.96800	1.96051	1.64784	10.62893	9.85794	9.12260	11.66726	7.70385	4.62937	7.50975	7.31932	6.88274	3.84091	3.22026	2.72207	19.25751	14.94024	11.51776
66600	1.97153	1.96483	1.65130	10.63135	9.86103	9.12514	11.67112	7.70766	4.63855	7.51205	7.32109	6.88481	3.84111	3.21828	2.71993	19.26746	14.93993	11.51527
66760	1.96837	1.96586	1.64775	10.62682	9.85830	9.12398	11.66968	7.70468	4.63323	7.51001	7.32113	6.88328	3.84105	3.22039	2.71961	19.26275	14.93743	11.51547
66920	1.96838	1.96237	1.64489	10.62839	9.85751	9.12194	11.63754	7.70333	4.63199	7.50677	7.31952	6.88127	3.84185	3.21981	2.71784	19.26060	14.93735	11.51298
67090	1.96904	1.96358	1.64864	10.62591	9.85604	9.12038	11.67668	7.70251	4.63002	7.50771	7.31852	6.88116	3.83949	3.21820	2.71812	19.26281	14.93421	11.51255	36.82	6.2	0.00	-2.04	0.01732	0.01201	0.01520	0.01819	0.01880	0.01471	0.00548	0.01520	0.02009	0.01854	0.01289	0.01644	0.01710	0.01766	0.01380	0.00570	0.01604	0.02135
67250	1.96843	1.96324	1.64489	10.62588	9.85422	9.11926	11.66632	7.69983	4.63229	7.50508	7.31661	6.88015	3.84104	3.22183	2.72074	19.25623	14.93673	11.51539
67420	1.97023	1.96420	1.64590	10.62938	9.85653	9.12081	11.66036	7.70236	4.63426	7.50760	7.31969	6.88095	3.83792	3.21624	2.71822	19.24628	14.93389	11.51183
67580	1.96789	1.96524	1.64875	10.63035	9.86023	9.12478	11.65009	7.70336	4.63826	7.51158	7.32143	6.88402	3.84535	3.22081	2.71976	19.26295	14.93916	11.51708
67750	1.96887	1.96262	1.64491	10.62930	9.85781	9.12279	11.65530	7.70005	4.63353	7.50812	7.31823	6.88104	3.84274	3.22088	2.71856	19.26631	14.93989	11.51917
67910	1.96952	1.96519	1.64565	10.63224	9.86018	9.12523	11.64828	7.70601	4.63349	7.51013	7.32012	6.88294	3.84050	3.21808	2.71680	19.27344	14.93942	11.51651
68070	1.96982	1.96317	1.64771	10.62990	9.86112	9.12464	11.65749	7.70380	4.63376	7.51109	7.32212	6.88335	3.84034	3.21764	2.71752	19.26362	14.94157	11.51724
68240	1.96803	1.96258	1.64393	10.63105	9.85869	9.12200	11.65613	7.69793	4.63046	7.50904	7.31987	6.88346	3.84006	3.21417	2.71523	19.26080	14.93676	11.51518
68400	1.97044	1.96333	1.64670	10.63218	9.86261	9.12756	11.66255	7.70574	4.63623	7.51300	7.32380	6.88609	3.84124	3.22035	2.71706	19.26443	14.94154	11.51808
68560	1.96827	1.96071	1.64390	10.63078	9.85989	9.12412	11.65190	7.70007	4.63138	7.50849	7.31974	6.88362	3.83801	3.21530	2.71964	19.26792	14.93925	11.51632
68730	1.96629	1.96187	1.64575	10.62849	9.85815	9.12207	11.64976	7.70080	4.63068	7.50906	7.31963	6.88134	3.83821	3.21595	2.71512	19.25772	14.93484	11.51291	36.82	6.2	0.00	-2.04	0.01732	0.01201	0.01520	0.01819	0.01880	0.01471	0.00548	0.01520	0.02009	0.01854	0.01289	0.01644	0.01710	0.01766	0.01380	0.00570	0.01604	0.02135
68890	1.96478	1.95879	1.64439	10.62764	9.85588	9.12052	11.63483	7.69522	4.62904	7.50653	7.31838	6.87966	3.83776	3.22099	2.71867	19.25745	14.93678	11.51717
69060	1.96920	1.96262	1.64735	10.63001	9.85908	9.12351	11.65708	7.69596	4.63165	7.50944	7.32064	6.88199	3.83972	3.21933	2.72114	19.26310	14.93863	11.51717
69220	1.97001	1.96428	1.64616	10.63214	9.86161	9.12679	11.65014	7.70442	4.63374	7.51207	7.32145	6.88492	3.84144	3.21794	2.71774	19.25879	14.93921	11.51628
69390	1.96838	1.96282	1.64734	10.63076	9.86235	9.12722	11.65036	7.70500	4.63313	7.51143	7.32247	6.88484	3.84281	3.22077	2.71699	19.26646	14.93886	11.51651
69550	1.96770	1.96086	1.64462	10.63086	9.85935	9.12377	11.66607	7.69571	4.63041	7.50796	7.31960	6.88241	3.83887	3.21719	2.71789	19.25611	14.93692	11.51432
69710	1.96859	1.96161	1.64533	10.62881	9.85792	9.12141	11.64750	7.69929	4.63009	7.50941	7.32026	6.88237	3.83872	3.21573	2.71862	19.25651	14.93594	11.51371
69880	1.96895	1.96038	1.64450	10.62813	9.85734	9.12056	11.64162	7.69843	4.63111	7.50910	7.31908	6.88264	3.84017	3.21978	2.71715	19.26996	14.93782	11.51794
70040	1.96995	1.96170	1.64766	10.63173	9.86131	9.12538	11.65497	7.70209	4.63341	7.51117	7.32142	6.88474	3.84020	3.21797	2.71752	19.26807	14.93672	11.51506
70210	1.96905	1.96259	1.64596	10.63049	9.86093	9.12513	11.64531	7.69902	4.63449	7.51103	7.32088	6.88439	3.84052	3.21795	2.71591	19.25664	14.93692	11.51429
70370	1.96914	1.95987	1.64417	10.62844	9.85680	9.12219	11.63765	7.69747	4.62850	7.50642	7.31673	6.88192	3.83597	3.21429	2.71481	19.25464	14.93210	11.51002	36.82	6.0	0.00	-2.04	0.01732	0.01201	0.01520	0.01819	0.01880	0.01471	0.00548	0.01520	0.02009	0.01854	0.01289	0.01644	0.01710	0.01766	0.01380	0.00570	0.01604	0.02135
70530	1.96995	1.96018	1.64584	10.63018	9.86081	9.12423	11.65153	7.70273	4.63344	7.51262	7.32179	6.88424	3.84082	3.21410	2.71773	19.25518	14.93659	11.51510
70700	1.96777	1.95989	1.64422	10.62889	9.85809	9.12240	11.65251	7.69692	4.63013	7.50879	7.31927	6.88286	3.83549	3.21331	2.71356	19.26096	14.93193	11.51108
70860	1.96755	1.96060	1.64814	10.63226	9.86281	9.12653	11.65749	7.70433	4.63268	7.51272	7.32207	6.88593	3.84040	3.21623	2.71847	19.26123	14.93995	11.51747
71020	1.96908	1.96064	1.64441	10.63115	9.85951	9.12378	11.63939	7.70098	4.62817	7.50964	7.32028	6.88375	3.83679	3.21227	2.71435	19.25760	14.93601	11.51268
71190	1.96717	1.96102	1.64550	10.63179	9.86231	9.12573	11.66724	7.70164	4.63201	7.51112	7.32224	6.88411	3.83961	3.21651	2.71660	19.26365	14.93755	11.51692
71350	1.96706	1.95874	1.64213	10.62894	9.85880	9.12338	11.65772	7.69635	4.62874	7.50803	7.31928	6.88180	3.83644	3.21195	2.71247	19.25760	14.93366	11.51176
71510	1.96444	1.95850	1.64306	10.63038	9.86014	9.12611	11.65485	7.69599	4.62814	7.51079	7.32145	6.88505	3.83814	3.21626	2.71642	19.25437	14.93717	11.51529
71680	1.96587	1.95904	1.64443	10.62783	9.85895	9.12075	11.64693	7.69592	4.62876	7.50835	7.31934	6.88335	3.83580	3.21158	2.71432	19.25491	14.93532	11.51262
71840	1.96783	1.96035	1.64630	10.63077	9.85966	9.12505	11.65538	7.70596	4.63260	7.51108	7.32046	6.88508	3.84156	3.21620	2.71975	19.25666	14.93810	11.51618
72010	1.96810	1.95839	1.64357	10.62868	9.85811	9.12215	11.65023	7.69716	4.62806	7.50836	7.31773	6.88205	3.83642	3.21587	2.71684	19.26186	14.93541	11.51386	36.82	6.1	0.00	-2.04	0.01732	0.01201	0.01520	0.01819	0.01880	0.01471	0.00548	0.01520	0.02009	0.01854	0.01289	0.01644	0.01710	0.01766	0.01380	0.00570	0.01604	0.02135
72170	1.96719	1.95820	1.64522	10.62740	9.85845	9.12149	11.65642	7.69747	4.62965	7.50959	7.31986	6.88294	3.83783	3.21509	2.71651	19.25608	14.93798	11.51474
72330	1.96549	1.95963	1.64363	10.62766	9.85564	9.11925	11.64261	7.69747	4.62491	7.50749	7.31655	6.88066	3.83724	3.21580	2.72022	19.26468	14.93929	11.51802
72500	1.96787	1.96230	1.64663	10.63134	9.86119	9.12340	11.65121	7.70190	4.63294	7.51097	7.32047	6.88466	3.83985	3.21904	2.71982	19.27962	14.93946	11.51923
72660	1.96937	1.96360	1.64865	10.63314	9.86303	9.12536	11.65310	7.70418	4.63347	7.51371	7.32224	6.88746	3.84153	3.21813	2.71552	19.26199	14.94051	11.51750
72830	1.96843	1.96152	1.64622	10.62965	9.86037	9.12491	11.63583	7.70503	4.63309	7.51283	7.32200	6.88771	3.83935	3.21854	2.71816	19.26092	14.93926	11.51721
72990	1.96604	1.95924	1.64386	10.63094	9.86026	9.12242	11.65023	7.69905	4.62729	7.51038	7.31948	6.88505	3.83464	3.21405	2.71342	19.25850	14.93509	11.51327
73150	1.96322	1.95735	1.64424	10.62809	9.86104	9.12687	11.64902	7.70351	4.63211	7.51331	7.32315	6.88749	3.84142	3.21594	2.71595	19.26804	14.94030	11.51927
73320	1.96712	1.95838	1.64397	10.63243	9.86024	9.12308	11.62958	7.69825	4.62686	7.51064	7.32109	6.88440	3.83601	3.21467	2.71562	19.26132	14.94036	11.51761
73480	1.96672	1.95823	1.64462	10.62974	9.86074	9.12357	11.65702	7.69586	4.62762	7.51116	7.32040	6.88507	3.83694	3.21474	2.71224	19.27047	14.93761	11.51561
73640	1.96527	1.95982	1.64300	10.62846	9.85803	9.12188	11.63380	7.69503	4.62737	7.51034	7.31929	6.88359	3.83704	3.21339	2.71305	19.25671	14.94166	11.51966	36.76	6.1	0.00	-2.04	0.01732	0.01201	0.01520	0.01819	0.01880	0.01471	0.00548	0.01520	0.02009	0.01854	0.01289	0.01644	0.01710	0.01766	0.01380	0.00570	0.01604	0.02135
73810	1.96671	1.96057	1.64436	10.63104	9.85974	9.12409	11.64888	7.69944	4.62713	7.51159	7.32118	6.88426	3.83367	3.21444	2.71498	19.27420	14.93604	11.51453
73970	1.96512	1.95592	1.64435	10.63007	9.85710	9.12097	11.64405	7.69525	4.62560	7.51013	7.31910	6.88272	3.84001	3.21676	2.71969	19.26908	14.94589	11.52091
74140	1.96894	1.96303	1.64556	10.63415	9.86353	9.12761	11.66873	7.70034	4.63085	7.51500	7.32542	6.88780	3.83740	3.21449	2.71440	19.26989	14.94282	11.51735
74300	1.96540	1.95930	1.64329	10.63044	9.86056	9.12518	11.66322	7.69747	4.62613	7.51258	7.32325	6.88726	3.83262	3.21374	2.71408	19.26047	14.93905	11.51655
74470	1.96349	1.95461	1.64316	10.63066	9.85887	9.12259	11.64707	7.69267	4.62566	7.51126	7.32053	6.88385	3.83645	3.21304	2.71585	19.26760	14.94221	11.52118
74630	1.96669	1.95988	1.64656	10.63326	9.86290	9.12626	11.64533	7.69931	4.63018	7.51483	7.32524	6.88806	3.83618	3.21399	2.71568	19.27420	14.94148	11.51628
74790	1.96844	1.95854	1.64529	10.63369	9.86205	9.12672	11.65454	7.70314	4.63039	7.51667	7.32594	6.88820	3.83546	3.21438	2.71400	19.27298	14.94235	11.51833
74960	1.96544	1.95868	1.64287	10.63073	9.86022	9.12375	11.65469	7.69389	4.62580	7.51218	7.32286	6.88579	3.83768	3.21521	2.71553	19.26330	14.94087	11.51933
75120	1.96504	1.95885	1.64442	10.63284	9.86155	9.12508	11.65069	7.69622	4.62521	7.51316	7.32290	6.88679	3.83370	3.21220	2.71117	19.26209	14.93916	11.51567
75290	1.96664	1.95957	1.64489	10.63346	9.86292	9.12698	11.64420	7.69476	4.62938	7.51493	7.32519	6.88871	3.83534	3.21524	2.71458	19.27364	14.93868	11.51769	36.82	6.1	0.00	-2.04	0.01732	0.01201	0.01520	0.01819	0.01880	0.01471	0.00548	0.01520	0.02009	0.01854	0.01289	0.01644	0.01710	0.01766	0.01380	0.00570	0.01604	0.02135
75450	1.96498	1.95917	1.64371	10.63214	9.86124	9.12606	11.63629	7.69291	4.62749	7.51343	7.32421	6.88775	3.83418	3.21575	2.71277	19.27673	14.93891	11.51850
75620	1.96371	1.95812	1.64230	10.63155	9.86305	9.12669	11.65129	7.69527	4.62868	7.51401	7.32371	6.88836	3.83552	3.21587	2.71541	19.26987	14.93943	11.51933
75780	1.96735	1.96099	1.64622	10.63397	9.86476	9.12841	11.63840	7.69622	4.63071	7.51512	7.32644	6.88918	3.83647	3.21473	2.71603	19.26435	14.93972	11.51942
75950	1.96472	1.96014	1.64549	10.63235	9.86443	9.12844	11.64986	7.69649	4.63046	7.51577	7.32635	6.89027	3.83580	3.21522	2.71314	19.26502	14.94131	11.52091
76110	1.96486	1.95834	1.64322	10.63298	9.86236	9.12757	11.63102	7.69466	4.62459	7.51506	7.32611	6.88968	3.83524	3.21405	2.71136	19.27323	14.94433	11.52230
76280	1.96588	1.95942	1.64467	10.63412	9.86428	9.13017	11.63576	7.69254	4.62465	7.51703	7.32729	6.89099	3.83370	3.21260	2.71067	19.26556	14.94192	11.52048
76440	1.96449	1.96027	1.64538	10.63455	9.86425	9.12876	11.63606	7.69631	4.62465	7.51911	7.32831	6.89208	3.83338	3.21311	2.71438	19.27498	14.94746	11.52326
76600	1.96202	1.95857	1.64226	10.63415	9.86291	9.12789	11.65114	7.69546	4.62513	7.51634	7.32724	6.89015	3.83548	3.21513	2.71488	19.26677	14.94772	11.52350
76770	1.96555	1.95821	1.64277	10.63475	9.86469	9.12956	11.63870	7.69688	4.62854	7.51628	7.32772	6.88982	3.83221	3.21011	2.71237	19.26233	14.94082	11.51958
76940	1.96357	1.96045	1.64360	10.63356	9.86430	9.12983	11.65065	7.69473	4.62991	7.51723	7.32753	6.89108	3.83519	3.21512	2.71296	19.26892	14.94217	11.52114	36.76	6.2	0.00	-2.04	0.01732	0.01201	0.01520	0.01819	0.01880	0.01471	0.00548	0.01520	0.02009	0.01854	0.01289	0.01644	0.01710	0.01766	0.01380	0.00570	0.01604	0.02135
77100	1.96565	1.95800	1.64362	10.63321	9.86345	9.12761	11.63031	7.69144	4.62334	7.51435	7.32623	6.88865	3.83468	3.21548	2.71620	19.25910	14.94640	11.52460
77260	1.96778	1.96296	1.64408	10.63703	9.86809	9.13260	11.64319	7.69559	4.62546	7.51839	7.32872	6.89209	3.83485	3.21260	2.71382	19.27403	14.94420	11.52249
77430	1.96432	1.95769	1.64289	10.63543	9.86518	9.13062	11.64085	7.69213	4.62783	7.51612	7.32910	6.89007	3.83162	3.21360	2.71194	19.27336	14.94394	11.52268
77590	1.96363	1.95788	1.64162	10.63651	9.86676	9.12830	11.64794	7.68743	4.62281	7.51579	7.32707	6.88984	3.83485	3.21662	2.71743	19.27673	14.95035	11.52608
77760	1.96798	1.96005	1.64533	10.63877	9.87038	9.13535	11.66205	7.69568	4.62525	7.51963	7.33114	6.89349	3.83521	3.21454	2.71210	19.25749	14.94432	11.52361
77920	1.96642	1.95702	1.64306	10.63643	9.86804	9.13355	11.66092	7.69035	4.62234	7.51735	7.32964	6.89289	3.83330	3.21172	2.71038	19.25507	14.94646	11.52377
78090	1.96387	1.95741	1.64159	10.63697	9.86623	9.12983	11.63498	7.68789	4.62166	7.51525	7.32657	6.89039	3.83332	3.21664	2.71596	19.27524	14.95087	11.52706
78250	1.96827	1.95996	1.64334	10.63993	9.87116	9.13604	11.66145	7.69861	4.62618	7.51891	7.33242	6.89336	3.83485	3.21306	2.71163	19.27457	14.94733	11.52492
78420	1.96417	1.95770	1.64252	10.63891	9.86887	9.13383	11.63535	7.69447	4.62414	7.51885	7.33114	6.89246	3.83217	3.21319	2.71316	19.26811	14.94637	11.52587
78580	1.96712	1.95779	1.64142	10.63967	9.87216	9.13426	11.65357	7.69383	4.62753	7.52027	7.33284	6.89441	3.83394	3.21219	2.71117	19.28220	14.94998	11.52511	36.82	6.2	0.00	-2.04	0.01732	0.01201	0.01520	0.01819	0.01880	0.01471	0.00548	0.01520	0.02009	0.01854	0.01289	0.01644	0.01710	0.01766	0.01380	0.00570	0.01604	0.02135
78750	1.96348	1.95649	1.64319	10.63958	9.87120	9.13591	11.64957	7.69407	4.62712	7.52169	7.33535	6.89674	3.83053	3.21090	2.71204	19.28570	14.94786	11.52616
78910	1.96361	1.95789	1.64167	10.63930	9.87001	9.13488	11.64534	7.69095	4.62320	7.51836	7.33337	6.89349	3.83194	3.21094	2.71344	19.26214	14.94861	11.52707
79080	1.96342	1.95845	1.64219	10.64032	9.87120	9.13604	11.63088	7.69319	4.62411	7.52066	7.33455	6.89531	3.83235	3.21120	2.70838	19.28853	14.94873	11.52779
79240	1.96266	1.95720	1.64243	10.64057	9.87384	9.13749	11.64655	7.69431	4.62450	7.52271	7.33711	6.89795	3.83393	3.21120	2.71275	19.27560	14.95285	11.53054
79410	1.96220	1.95864	1.64172	10.64205	9.87352	9.13767	11.63833	7.69208	4.62585	7.52178	7.33608	6.89585	3.83506	3.21514	2.71352	19.27452	14.95288	11.53185
79570	1.96630	1.95660	1.64055	10.64431	9.87358	9.13883	11.65779	7.69183	4.62719	7.52245	7.33584	6.89761	3.83120	3.21182	2.71193	19.26268	14.94896	11.52744
79730	1.96436	1.95804	1.64531	10.64460	9.87652	9.14003	11.64768	7.69683	4.62834	7.52570	7.33933	6.89907	3.83345	3.21388	2.71393	19.27425	14.95320	11.53113
79900	1.96423	1.95675	1.64317	10.64339	9.87383	9.13867	11.62704	7.68891	4.62531	7.52288	7.33738	6.89758	3.83394	3.21285	2.71581	19.27802	14.95543	11.53474
80060	1.96637	1.95741	1.64299	10.64692	9.87600	9.14032	11.64851	7.69476	4.62589	7.52456	7.33983	6.89945	3.83234	3.21095	2.71401	19.27506	14.95041	11.53080
80230	1.96402	1.95968	1.64321	10.64639	9.87823	9.14373	11.63664	7.69772	4.62823	7.52780	7.33965	6.90185	3.83513	3.21420	2.71273	19.27191	14.95357	11.53400	36.76	6.2	0.00	-2.04	0.01732	0.01201	0.01520	0.01819	0.01880	0.01471	0.00548	0.01520	0.02009	0.01854	0.01289	0.01644	0.01710	0.01766	0.01380	0.00570	0.01604	0.02135
80390	1.96414	1.95753	1.64111	10.64767	9.87644	9.13987	11.62332	7.69295	4.62121	7.52383	7.33841	6.89791	3.83342	3.21051	2.70881	19.28174	14.95458	11.53310
80550	1.96292	1.95629	1.64010	10.64565	9.87506	9.14038	11.63717	7.69321	4.62216	7.52412	7.33753	6.89951	3.83012	3.20729	2.70959	19.27568	14.95186	11.53009
80720	1.96203	1.95511	1.64098	10.64357	9.87366	9.13781	11.64953	7.68826	4.62176	7.52354	7.33694	6.89770	3.83229	3.21138	2.71106	19.28336	14.95403	11.53442
80880	1.96363	1.95789	1.64171	10.64798	9.87917	9.14299	11.63544	7.68983	4.62184	7.52670	7.34225	6.90089	3.83143	3.21006	2.71070	19.26558	14.95244	11.53303
81050	1.96304	1.95839	1.64173	10.65125	9.88139	9.14437	11.63822	7.69559	4.62588	7.52846	7.34299	6.90266	3.83327	3.21125	2.70928	19.27029	14.95337	11.53492
81210	1.96266	1.95842	1.64192	10.64912	9.87966	9.14389	11.64418	7.69072	4.62345	7.52731	7.34269	6.90085	3.83277	3.21042	2.71003	19.26975	14.95546	11.53520
81380	1.96296	1.95669	1.64049	10.65003	9.88137	9.14357	11.64991	7.69406	4.62597	7.52811	7.34260	6.90076	3.83396	3.21225	2.71151	19.27743	14.95490	11.53572
81540	1.96489	1.95831	1.64347	10.65091	9.88295	9.14529	11.65074	7.69301	4.62522	7.52943	7.34340	6.90381	3.83128	3.20906	2.70848	19.27972	14.95647	11.53472
81710	1.96205	1.95594	1.64057	10.64960	9.88155	9.14512	11.63913	7.69377	4.62563	7.52793	7.34193	6.90258	3.83103	3.21007	2.71223	19.28309	14.95711	11.53373
81870	1.96145	1.95784	1.64149	10.65219	9.88049	9.14442	11.65208	7.68835	4.62213	7.52768	7.34190	6.90206	3.83049	3.21246	2.71233	19.28662	14.95514	11.53644	36.76	6.1	0.00	-2.04	0.01732	0.01201	0.01520	0.01819	0.01880	0.01471	0.00548	0.01520	0.02009	0.01854	0.01289	0.01644	0.01710	0.01766	0.01380	0.00570	0.01604	0.02135
82040	1.96463	1.95858	1.64049	10.65117	9.88182	9.14488	11.64665	7.69023	4.62424	7.52949	7.34434	6.90345	3.83056	3.20901	2.70884	19.28029	14.95679	11.53483
82200	1.96027	1.95578	1.64243	10.65139	9.88292	9.14715	11.64605	7.68970	4.62496	7.53035	7.34506	6.90555	3.83263	3.20972	2.71239	19.26884	14.95819	11.53624
82370	1.96049	1.95517	1.64073	10.65020	9.88178	9.14471	11.64687	7.68584	4.62175	7.52798	7.34385	6.90415	3.83043	3.21191	2.71155	19.28891	14.96019	11.53925
82530	1.96349	1.95558	1.64183	10.65435	9.88407	9.14793	11.63580	7.69125	4.62634	7.53122	7.34570	6.90622	3.83246	3.20849	2.70805	19.28298	14.95851	11.53529
82700	1.96371	1.95988	1.64268	10.65540	9.88765	9.14918	11.66960	7.69349	4.62618	7.53394	7.34880	6.90911	3.83376	3.20936	2.71024	19.27813	14.96048	11.53956
82860	1.96381	1.95609	1.64285	10.65396	9.88356	9.14595	11.65042	7.69262	4.62100	7.53012	7.34518	6.90598	3.83101	3.20717	2.70797	19.28312	14.95828	11.53682
83020	1.96111	1.95374	1.63920	10.65285	9.88284	9.14504	11.63512	7.68841	4.62281	7.52961	7.34514	6.90619	3.83275	3.20830	2.70934	19.28689	14.95830	11.53906
83190	1.96013	1.95466	1.64128	10.65546	9.88613	9.14535	11.63994	7.68885	4.62326	7.53272	7.34895	6.90904	3.82992	3.20908	2.70919	19.28716	14.95891	11.53918
83350	1.96395	1.95579	1.64309	10.65551	9.88632	9.14736	11.64778	7.69052	4.62201	7.53470	7.34891	6.90879	3.82984	3.20985	2.71196	19.28514	14.95848	11.53917
83520	1.96135	1.95498	1.64042	10.65609	9.88596	9.14748	11.63657	7.69072	4.62142	7.53435	7.34644	6.90819	3.83092	3.20925	2.71107	19.28569	14.96110	11.54021	36.76	6.1	0.00	-2.04	0.01732	0.01201	0.01520	0.01819	0.01880	0.01471	0.00548	0.01520	0.02009	0.01854	0.01289	0.01644	0.01710	0.01766	0.01380	0.00570	0.01604	0.02135
83680	1.96195	1.95469	1.64341	10.65697	9.88729	9.14944	11.64833	7.68868	4.62330	7.53515	7.34751	6.90893	3.82893	3.20688	2.70814	19.28300	14.95942	11.53778
83850	1.96454	1.95757	1.64429	10.65889	9.88921	9.15178	11.64539	7.69465	4.62687	7.53814	7.35013	6.91177	3.83034	3.20990	2.71260	19.29810	14.96334	11.54165
84010	1.96174	1.95362	1.63929	10.65885	9.88801	9.14986	11.64494	7.69301	4.62295	7.53536	7.34801	6.90998	3.82856	3.21103	2.71169	19.28529	14.96592	11.54306
84180	1.96225	1.95453	1.63977	10.66033	9.88952	9.15139	11.64509	7.69318	4.61948	7.53743	7.35052	6.91230	3.82985	3.20762	2.71036	19.28636	14.96866	11.54493
84340	1.96432	1.95564	1.64117	10.66208	9.89078	9.15394	11.64494	7.69693	4.62253	7.53912	7.35111	6.91228	3.83108	3.20947	2.70885	19.29149	14.96569	11.54305
84510	1.96051	1.95478	1.63808	10.66192	9.89230	9.15566	11.64713	7.68953	4.62079	7.53973	7.35232	6.91293	3.82918	3.20749	2.70813	19.29108	14.96468	11.54311
84670	1.95963	1.95434	1.63889	10.66030	9.89015	9.15012	11.64253	7.68844	4.62008	7.53600	7.34889	6.91103	3.82755	3.20412	2.70569	19.28421	14.95942	11.53883
84830	1.95441	1.95196	1.63849	10.65899	9.89183	9.15315	11.63884	7.69369	4.62530	7.53961	7.35381	6.91426	3.83188	3.20962	2.71041	19.29162	14.96822	11.54546
85000	1.95995	1.95210	1.63767	10.66155	9.89146	9.15328	11.65014	7.68924	4.61854	7.53884	7.35261	6.91368	3.83049	3.20879	2.70916	19.29972	14.96944	11.54801
85160	1.96162	1.95587	1.63988	10.66581	9.89569	9.15693	11.65948	7.68909	4.62329	7.54202	7.35539	6.91634	3.83093	3.20769	2.70945	19.29085	14.97044	11.54667	36.82	6.1	0.00	-2.04	0.01732	0.01201	0.01520	0.01819	0.01880	0.01471	0.00548	0.01520	0.02009	0.01854	0.01289	0.01644	0.01710	0.01766	0.01380	0.00570	0.01604	0.02135
85330	1.95960	1.95381	1.64006	10.66430	9.89531	9.15793	11.63836	7.68979	4.62225	7.54209	7.35542	6.91574	3.82741	3.20622	2.71011	19.29139	14.97363	11.54827
85490	1.95931	1.95251	1.63888	10.66600	9.89678	9.15666	11.63813	7.68753	4.62045	7.54234	7.35513	6.91623	3.82743	3.20678	2.70535	19.28559	14.97116	11.54727
85650	1.96242	1.95641	1.64205	10.66897	9.90042	9.16172	11.66137	7.69693	4.62515	7.54591	7.35960	6.92054	3.83127	3.21080	2.71035	19.29517	14.97273	11.55093
85820	1.96250	1.95443	1.64051	10.66807	9.89886	9.15911	11.64763	7.69255	4.62193	7.54214	7.35598	6.91671	3.83262	3.21191	2.71421	19.30097	14.97855	11.55215
85980	1.96212	1.95539	1.64096	10.66915	9.89995	9.16130	11.64107	7.68706	4.62145	7.54447	7.35883	6.91776	3.82807	3.20902	2.70781	19.29571	14.97250	11.54997
86150	1.96041	1.95443	1.64039	10.66898	9.89904	9.16067	11.65940	7.69313	4.61967	7.54469	7.35927	6.91921	3.83218	3.20643	2.70806	19.30003	14.97497	11.55113
86310	1.95832	1.95164	1.63806	10.66771	9.89830	9.15798	11.62879	7.68923	4.62015	7.54302	7.35490	6.91689	3.82667	3.20295	2.70590	19.28802	14.97157	11.54826
86470	1.95952	1.95411	1.63947	10.66946	9.90053	9.16201	11.63587	7.69223	4.62117	7.54653	7.35966	6.91936	3.83111	3.20716	2.70760	19.29571	14.97514	11.55317
86640	1.95922	1.95333	1.63819	10.66914	9.89885	9.16013	11.64182	7.68733	4.61674	7.54494	7.35802	6.91846	3.82816	3.20438	2.70547	19.29355	14.97387	11.55157
86800	1.95885	1.95185	1.63815	10.66924	9.89957	9.16061	11.64868	7.68797	4.61733	7.54477	7.35896	6.91994	3.82720	3.20650	2.70751	19.30665	14.97639	11.55175	36.76	6.2	0.00	-2.04	0.01732	0.01201	0.01520	0.01819	0.01880	0.01471	0.00548	0.01520	0.02009	0.01853	0.01289	0.01644	0.01710	0.01766	0.01380	0.00570	0.01604	0.02135
86970	1.95878	1.95128	1.63717	10.66892	9.90032	9.15877	11.62555	7.68076	4.61566	7.54345	7.35770	6.91819	3.82668	3.20735	2.71054	19.29639	14.97985	11.55542
87130	1.95954	1.95488	1.63869	10.67289	9.90349	9.16345	11.62291	7.68771	4.62003	7.54715	7.36016	6.92114	3.82857	3.20337	2.70673	19.30138	14.97616	11.55274
87300	1.95925	1.95522	1.63992	10.67309	9.90516	9.16380	11.63383	7.69063	4.62142	7.54990	7.36252	6.92330	3.82885	3.20640	2.70699	19.30327	14.97770	11.55436
87460	1.95946	1.95237	1.63825	10.67317	9.90236	9.16056	11.62653	7.68493	4.61666	7.54650	7.36157	6.92145	3.82621	3.20743	2.70483	19.29679	14.97589	11.55557
87620	1.95952	1.95361	1.63945	10.67227	9.90319	9.16380	11.63353	7.68808	4.61825	7.54804	7.36181	6.92138	3.82902	3.20674	2.70670	19.30395	14.98215	11.55846
87790	1.96147	1.95470	1.64106	10.67569	9.90652	9.16630	11.64792	7.68895	4.62315	7.55090	7.36493	6.92397	3.83000	3.20625	2.70859	19.29652	14.97546	11.55551
87950	1.95855	1.95274	1.64034	10.67440	9.90573	9.16485	11.63654	7.68861	4.62185	7.55241	7.36566	6.92563	3.83032	3.20968	2.70853	19.30624	14.97924	11.55916
88120	1.95857	1.95010	1.63664	10.67679	9.90712	9.16747	11.64227	7.68571	4.61835	7.55066	7.36401	6.92450	3.82854	3.20562	2.70895	19.32125	14.98648	11.56219
88280	1.96120	1.95237	1.63911	10.67929	9.90981	9.16914	11.63549	7.68981	4.62121	7.55419	7.36739	6.92682	3.82925	3.20523	2.70559	19.31178	14.98090	11.55958
88450	1.95805	1.95340	1.63782	10.67785	9.90818	9.16934	11.64896	7.69305	4.61747	7.55513	7.36752	6.92633	3.82886	3.20745	2.70770	19.30309	14.98274	11.56042	36.82	6.1	0.00	-2.04	0.01732	0.01201	0.01520	0.01819	0.01880	0.01471	0.00548	0.01520	0.02009	0.01853	0.01289	0.01644	0.01710	0.01766	0.01380	0.00570	0.01604	0.02135
88610	1.95729	1.94980	1.63813	10.67527	9.90659	9.16834	11.63592	7.68604	4.61770	7.55240	7.36437	6.92476	3.82335	3.20215	2.70080	19.30336	14.97605	11.55778
88770	1.95892	1.95372	1.64144	10.67980	9.91009	9.17147	11.65077	7.69320	4.62080	7.55512	7.36828	6.92762	3.82822	3.20700	2.70619	19.31362	14.98563	11.56218
88940	1.95959	1.95123	1.63980	10.67574	9.90758	9.16850	11.63946	7.68727	4.61679	7.55200	7.36547	6.92598	3.82723	3.20512	2.70746	19.30592	14.98484	11.56246
89100	1.96071	1.95352	1.63950	10.68066	9.90947	9.17078	11.64489	7.68623	4.61679	7.55360	7.36737	6.92770	3.82575	3.20309	2.70569	19.29661	14.98298	11.56039
89270	1.95667	1.95135	1.63817	10.68042	9.91059	9.17172	11.63103	7.68721	4.61710	7.55661	7.36805	6.92885	3.82883	3.20537	2.70753	19.30511	14.98362	11.56288
89430	1.95786	1.95148	1.63720	10.68134	9.91115	9.17370	11.64022	7.68535	4.61787	7.55738	7.36828	6.92897	3.82580	3.20396	2.70570	19.31254	14.98339	11.56183
89600	1.96160	1.95424	1.64020	10.68468	9.91394	9.17779	11.65304	7.69146	4.62304	7.56030	7.37151	6.93280	3.83038	3.20753	2.70912	19.31065	14.98938	11.56800
89760	1.96050	1.95208	1.63823	10.68363	9.91363	9.17590	11.63803	7.68362	4.61842	7.55804	7.36936	6.93022	3.82893	3.21000	2.71103	19.30998	14.98967	11.56747
89920	1.95963	1.95327	1.63720	10.68268	9.91303	9.17553	11.64466	7.68442	4.61789	7.55925	7.37156	6.93149	3.82787	3.20582	2.70586	19.31160	14.98472	11.56502
90090	1.95981	1.95388	1.64023	10.68260	9.91421	9.17731	11.65693	7.69027	4.61941	7.56083	7.37302	6.93463	3.82727	3.20661	2.70886	19.31262	14.99169	11.56936	36.87	6.1	0.00	-2.04	0.01732	0.01201	0.01520	0.01819	0.01880	0.01471	0.00548	0.01520	0.02009	0.01853	0.01289	0.01644	0.01710	0.01766	0.01380	0.00570	0.01604	0.02135
90250	1.96018	1.95074	1.63625	10.68443	9.91135	9.17421	11.64410	7.68663	4.61830	7.56014	7.37299	6.93293	3.82681	3.20385	2.70678	19.30074	14.98819	11.56809
90420	1.95837	1.95047	1.63597	10.68395	9.91231	9.17730	11.63529	7.69158	4.61944	7.55951	7.37195	6.93361	3.82396	3.20405	2.70555	19.30776	14.98592	11.56689
90580	1.95715	1.94747	1.63221	10.68056	9.90979	9.17418	11.63400	7.68246	4.61613	7.55853	7.36959	6.93132	3.82593	3.20555	2.70757	19.31208	14.98941	11.57079
90750	1.96055	1.95245	1.63760	10.68661	9.91650	9.17910	11.63438	7.68424	4.62131	7.56270	7.37598	6.93647	3.82862	3.20794	2.70854	19.31195	14.99166	11.57144
90910	1.96159	1.95412	1.63840	10.68633	9.91543	9.18045	11.63589	7.68415	4.61690	7.56416	7.37488	6.93772	3.82601	3.20710	2.70778	19.31735	14.99227	11.57282
91080	1.96110	1.95206	1.63956	10.68896	9.91815	9.18164	11.63461	7.68810	4.61846	7.56568	7.37660	6.93756	3.82657	3.20666	2.70678	19.30735	14.99049	11.57198
91240	1.95887	1.95207	1.63676	10.68745	9.91452	9.18041	11.62001	7.68503	4.61469	7.56346	7.37361	6.93666	3.82284	3.20432	2.70428	19.32182	14.98909	11.57062
91410	1.95870	1.95266	1.63866	10.68641	9.91639	9.18056	11.63431	7.68785	4.62066	7.56315	7.37592	6.93737	3.82811	3.20535	2.70305	19.31033	14.99340	11.57263
91570	1.95694	1.95127	1.63605	10.68746	9.91577	9.17962	11.61189	7.68569	4.61526	7.56197	7.37370	6.93596	3.82633	3.20726	2.70868	19.31492	14.99250	11.57477
91740	1.95751	1.95141	1.63751	10.68789	9.91746	9.18213	11.62411	7.68397	4.61800	7.56351	7.37650	6.93586	3.82365	3.20304	2.70337	19.31239	14.99259	11.57241	36.82	5.9	0.00	-2.04	0.01732	0.01201	0.01520	0.01819	0.01880	0.01471	0.00548	0.01520	0.02009	0.01853	0.01289	0.01644	0.01710	0.01766	0.01380	0.00570	0.01604	0.02135
91900	1.95950	1.95495	1.63983	10.69124	9.91970	9.18399	11.64030	7.69002	4.62140	7.56837	7.37941	6.93997	3.82957	3.20560	2.70820	19.31902	14.99533	11.57747
92070	1.95819	1.95256	1.63633	10.68943	9.91784	9.18190	11.64173	7.68590	4.61535	7.56590	7.37735	6.93944	3.82414	3.20419	2.70326	19.31740	14.99585	11.57512
92230	1.95758	1.94996	1.63764	10.68878	9.91845	9.18313	11.64128	7.68392	4.61781	7.56551	7.37835	6.93828	3.82181	3.20019	2.70489	19.31037	14.99568	11.57512
92400	1.95849	1.95154	1.63837	10.69274	9.92278	9.18536	11.63013	7.69102	4.62075	7.56950	7.38163	6.94216	3.82672	3.20477	2.70504	19.33472	14.99967	11.58031
92560	1.95916	1.95210	1.63620	10.69116	9.91882	9.18091	11.63465	7.68441	4.61406	7.56531	7.37970	6.93987	3.82731	3.20509	2.70573	19.33905	15.00110	11.58076
92720	1.96175	1.95293	1.63774	10.69285	9.91887	9.18373	11.61651	7.68877	4.61868	7.56589	7.37988	6.93952	3.82357	3.20181	2.70253	19.32524	14.99716	11.57696
92890	1.95699	1.94907	1.63503	10.69245	9.92106	9.18489	11.64098	7.68717	4.61922	7.56790	7.38218	6.94176	3.82572	3.20410	2.70357	19.31848	14.99888	11.57715
93050	1.95676	1.94964	1.63725	10.69105	9.91896	9.18318	11.61839	7.68129	4.61728	7.56675	7.37835	6.93952	3.82275	3.19971	2.70201	19.31821	14.99576	11.57453
93210	1.95796	1.95020	1.63820	10.69272	9.92141	9.18528	11.63819	7.68522	4.62003	7.56787	7.38002	6.94087	3.82621	3.20521	2.70749	19.32632	14.99873	11.57836
93380	1.95804	1.94821	1.63583	10.69148	9.91836	9.18288	11.62388	7.68376	4.61394	7.56544	7.37779	6.93893	3.82472	3.20352	2.70279	19.31843	14.99703	11.57723	36.82	6.1	0.00	-2.04	0.01732	0.01201	0.01520	0.01819	0.01880	0.01471	0.00548	0.01520	0.02009	0.01853	0.01289	0.01644	0.01710	0.01766	0.01380	0.00570	0.01604	0.02135
93540	1.95542	1.94918	1.63452	10.68987	9.91755	9.18306	11.63714	7.68476	4.61540	7.56664	7.37968	6.94027	3.82284	3.20021	2.70164	19.32168	15.00041	11.57768
93710	1.95508	1.94987	1.63822	10.69090	9.92108	9.18859	11.64716	7.68632	4.61903	7.57071	7.38331	6.94443	3.82781	3.20538	2.70694	19.33399	15.00388	11.58330
93870	1.95691	1.95069	1.63549	10.69551	9.92191	9.18605	11.64354	7.68223	4.61509	7.56792	7.37950	6.94167	3.82541	3.20507	2.70644	19.32763	15.00502	11.58472
94030	1.95883	1.95182	1.63764	10.69743	9.92324	9.18699	11.63668	7.68507	4.61919	7.56886	7.38085	6.94186	3.82464	3.20213	2.69986	19.32398	15.00350	11.58204
94200	1.95568	1.94678	1.63623	10.69427	9.92240	9.18663	11.63940	7.68605	4.61569	7.56888	7.38102	6.94277	3.82438	3.20260	2.70546	19.33426	14.99965	11.58007
94360	1.95521	1.94878	1.63534	10.69373	9.92119	9.18500	11.64942	7.68284	4.61373	7.56614	7.37698	6.94062	3.82244	3.20254	2.70217	19.32858	15.00228	11.58118
94530	1.95549	1.94985	1.63435	10.69345	9.92213	9.18587	11.62915	7.67883	4.61668	7.56824	7.38028	6.94118	3.82286	3.20289	2.70389	19.31424	15.00204	11.58058
94690	1.95763	1.94750	1.63470	10.69206	9.91876	9.18396	11.63352	7.68193	4.61141	7.56625	7.37609	6.94037	3.82530	3.20584	2.70860	19.31613	15.00540	11.58500
94860	1.95994	1.95030	1.63677	10.69598	9.92301	9.18754	11.63977	7.68798	4.61702	7.56924	7.38319	6.94407	3.82422	3.20075	2.70192	19.32046	15.00100	11.58002
95020	1.95768	1.94891	1.63568	10.69349	9.92020	9.18604	11.62334	7.68398	4.61522	7.56773	7.38026	6.94162	3.82205	3.20308	2.70450	19.32163	15.00191	11.58111	36.82	6.1	0.00	-2.04	0.01732	0.01201	0.01520	0.01819	0.01880	0.01471	0.00548	0.01520	0.02009	0.01853	0.01289	0.01644	0.01710	0.01766	0.01380	0.00570	0.01604	0.02135
95190	1.95495	1.94916	1.63678	10.69349	9.91969	9.18445	11.63832	7.68277	4.61650	7.56828	7.38161	6.94264	3.82332	3.20246	2.70329	19.32880	15.00281	11.58004
95350	1.95621	1.94870	1.63631	10.69288	9.92003	9.18392	11.63026	7.68082	4.61441	7.56799	7.37971	6.94271	3.82251	3.20162	2.70311	19.32380	15.00430	11.58172
95520	1.95671	1.94886	1.63510	10.69460	9.92346	9.18633	11.63863	7.68026	4.61558	7.57087	7.38261	6.94403	3.82248	3.20189	2.70149	19.32948	15.00278	11.58063
95680	1.95473	1.95099	1.63574	10.69620	9.92398	9.18846	11.64473	7.68218	4.61748	7.57080	7.38381	6.94586	3.82300	3.20303	2.70357	19.31974	15.00581	11.58115
95850	1.95543	1.94877	1.63521	10.69414	9.92323	9.18400	11.62801	7.67838	4.61605	7.56777	7.38129	6.94198	3.82477	3.20384	2.70419	19.31514	15.00430	11.58351
96010	1.95496	1.94972	1.63494	10.69639	9.92398	9.18581	11.62718	7.68215	4.61652	7.56910	7.38181	6.94424	3.82438	3.20312	2.70439	19.32975	15.00173	11.58032
96180	1.95624	1.95225	1.63746	10.69772	9.92683	9.19026	11.64028	7.68282	4.61810	7.57372	7.38547	6.94694	3.82490	3.20666	2.70520	19.33138	15.00447	11.58322
96340	1.95567	1.95147	1.63638	10.69741	9.92382	9.18709	11.64036	7.68625	4.61512	7.57075	7.38316	6.94550	3.82235	3.19793	2.69835	19.32894	15.00211	11.58106
96510	1.95275	1.94647	1.63131	10.69358	9.92287	9.18573	11.64194	7.68279	4.61496	7.56903	7.38100	6.94453	3.82457	3.20451	2.70395	19.32759	15.00891	11.58583
96670	1.95586	1.94885	1.63483	10.70018	9.92842	9.19046	11.63958	7.68555	4.61760	7.57337	7.38430	6.94644	3.82393	3.20203	2.70359	19.33103	15.00740	11.58499	36.82	6.0	0.00	-2.04	0.01732	0.01201	0.01520	0.01819	0.01880	0.01471	0.00548	0.01520	0.02009	0.01853	0.01289	0.01644	0.01710	0.01766	0.01380	0.00570	0.01604	0.02135
96830	1.95452	1.94784	1.63675	10.69762	9.92776	9.18896	11.63310	7.68516	4.61559	7.57359	7.38667	6.94750	3.82424	3.20079	2.70210	19.32954	15.00781	11.58369
97000	1.95270	1.94857	1.63283	10.69852	9.92681	9.18826	11.62384	7.67912	4.61043	7.57113	7.38346	6.94428	3.81931	3.19745	2.69898	19.32995	15.00148	11.58063
97160	1.95194	1.94823	1.63595	10.69519	9.92801	9.19143	11.63190	7.68517	4.61833	7.57504	7.38805	6.94910	3.82362	3.20317	2.70147	19.33130	15.00874	11.58637
97320	1.95697	1.94830	1.63386	10.69852	9.92712	9.18834	11.62580	7.68285	4.61307	7.57217	7.38393	6.94550	3.82441	3.20242	2.70540	19.33008	15.00737	11.58494
97490	1.95584	1.94872	1.63304	10.69823	9.92660	9.18768	11.61760	7.68207	4.61223	7.57336	7.38518	6.94540	3.82309	3.20063	2.70082	19.32467	15.00250	11.58214
97650	1.95429	1.94844	1.63179	10.69893	9.92503	9.18619	11.62663	7.68121	4.60641	7.56919	7.38175	6.94347	3.82144	3.20109	2.70307	19.32751	15.00772	11.58419
97820	1.95514	1.94755	1.63456	10.70117	9.92806	9.18815	11.63468	7.68316	4.61302	7.57172	7.38491	6.94525	3.81966	3.20111	2.69922	19.32927	15.00157	11.57895
97980	1.95526	1.94920	1.63627	10.70040	9.92902	9.18975	11.61444	7.68307	4.61236	7.57166	7.38407	6.94590	3.82250	3.20089	2.70153	19.32873	15.00364	11.58072
98140	1.95429	1.94771	1.63258	10.69871	9.92673	9.18671	11.62429	7.67872	4.61096	7.56937	7.38401	6.94475	3.82177	3.20181	2.70280	19.32941	15.00457	11.58537
98310	1.95330	1.94832	1.63541	10.70130	9.92929	9.18952	11.63529	7.67861	4.61156	7.57170	7.38366	6.94415	3.82027	3.20120	2.70176	19.32640	15.00398	11.58236	36.82	6.1	0.00	-2.04	0.01732	0.01201	0.01520	0.01819	0.01880	0.01471	0.00548	0.01520	0.02009	0.01853	0.01289	0.01644	0.01710	0.01766	0.01380	0.00570	0.01604	0.02135
98470	1.95625	1.94985	1.63379	10.70159	9.92863	9.18978	11.62098	7.67666	4.61264	7.57201	7.38516	6.94603	3.82394	3.19923	2.70086	19.32924	15.00494	11.58211
98640	1.95468	1.94787	1.63313	10.69969	9.92785	9.18668	11.62806	7.68035	4.61394	7.57119	7.38595	6.94530	3.81999	3.20123	2.70074	19.32829	15.00433	11.58355
98800	1.95410	1.94958	1.63506	10.70215	9.92801	9.18774	11.62949	7.68466	4.61257	7.57162	7.38416	6.94608	3.81976	3.19857	2.70185	19.31815	15.00360	11.58067
98970	1.95514	1.95011	1.63542	10.70335	9.93164	9.19103	11.62806	7.68515	4.61530	7.57263	7.38765	6.94756	3.82464	3.20065	2.69978	19.32653	15.00634	11.58444
99130	1.95371	1.94742	1.63302	10.70158	9.92908	9.18821	11.62444	7.67862	4.61072	7.56983	7.38396	6.94429	3.82219	3.20062	2.70291	19.32207	15.00830	11.58526
99300	1.95322	1.94689	1.63353	10.70389	9.93053	9.18807	11.61542	7.67950	4.61225	7.57146	7.38501	6.94663	3.82283	3.20176	2.70280	19.33087	15.00932	11.58631
99460	1.95592	1.94870	1.63555	10.70649	9.93294	9.19347	11.62738	7.68389	4.61223	7.57505	7.38970	6.94917	3.82254	3.19999	2.70468	19.31882	15.00810	11.58605
99630	1.95597	1.94843	1.63529	10.70454	9.93343	9.19161	11.61835	7.68372	4.61331	7.57548	7.39103	6.95059	3.82213	3.19855	2.70013	19.32653	15.01087	11.58789
99790	1.95344	1.94640	1.63183	10.70556	9.93072	9.18960	11.61301	7.67451	4.61079	7.57255	7.38683	6.94601	3.81877	3.19525	2.69623	19.32139	15.00308	11.58235
99950	1.95068	1.94355	1.63248	10.70085	9.93137	9.19211	11.63736	7.67880	4.61295	7.57378	7.38966	6.94990	3.82443	3.19859	2.70138	19.32399	15.00883	11.58606	36.82	6.2	0.00	-2.04	0.01732	0.01201	0.01520	0.01819	0.01880	0.01471	0.00548	0.01520	0.02009	0.01853	0.01289	0.01644	0.01710	0.01766	0.01380	0.00570	0.01604	0.02135
100120	1.95404	1.94699	1.63310	10.70376	9.93125	9.18875	11.63653	7.67768	4.61081	7.57017	7.38585	6.94586	3.82067	3.19932	2.70009	19.33862	15.00732	11.58470
100280	1.95433	1.94674	1.63353	10.70429	9.93155	9.19051	11.63277	7.67697	4.61113	7.57037	7.38720	6.94730	3.82108	3.19829	2.69956	19.34106	15.00615	11.58242
100450	1.95145	1.94454	1.63181	10.70083	9.92871	9.18637	11.60937	7.67802	4.60619	7.56732	7.38400	6.94418	3.81979	3.20268	2.70333	19.32413	15.01131	11.58892
100610	1.95591	1.94887	1.63678	10.70696	9.93400	9.19244	11.62592	7.67994	4.61256	7.57194	7.38851	6.94872	3.82135	3.19830	2.69816	19.34431	15.00799	11.58595
100770	1.95413	1.95119	1.63740	10.70733	9.93567	9.19449	11.63744	7.68592	4.61376	7.57326	7.39070	6.94897	3.82269	3.19926	2.69945	19.33713	15.01140	11.58662
100940	1.95364	1.94481	1.63191	10.70578	9.93191	9.18917	11.62840	7.68087	4.61116	7.57072	7.38802	6.94533	3.81803	3.19684	2.70101	19.34770	15.01023	11.58681
101100	1.95134	1.94456	1.63201	10.70493	9.93320	9.19043	11.62998	7.67728	4.61188	7.56914	7.38738	6.94538	3.81974	3.19613	2.69784	19.33401	15.00533	11.58469
