WetView ver 7.1	07-17-2019	11:05:57
AC9 Absorption and Attenuation Meter
00000311		; Serial number
2	; structure version number
Reserved
0.000000	0.000000		; Depth calibration
19200			; Baud rate
0.100000			; Path length (meters)
23			; number of temperature calibration bins
				12.61517	13.44096	14.46844	15.49904	16.50682	17.50108	18.49752	19.51783	20.49177	21.49009	22.48286	23.50673	24.54012	25.54812	26.49986	27.49321	28.50960	29.48671	30.47471	31.49432	32.50437	33.48679	34.49133	; temperature bins
a650	Blue	18.61587		0.01156	0.01096	0.01010	0.00930	0.00851	0.00774	0.00661	0.00573	0.00499	0.00402	0.00285	0.00203	0.00096	0.00000	-0.00110	-0.00152	-0.00210	-0.00247	-0.00259	-0.00317	-0.00346	-0.00380	-0.00403		; offset and temperature correction info
a676	Green	18.78942		0.00964	0.00899	0.00863	0.00813	0.00730	0.00639	0.00545	0.00448	0.00385	0.00301	0.00233	0.00165	0.00046	0.00000	-0.00106	-0.00167	-0.00251	-0.00280	-0.00316	-0.00329	-0.00377	-0.00392	-0.00441		; offset and temperature correction info
a715	Brown	18.59217		0.01171	0.01109	0.01043	0.00975	0.00878	0.00789	0.00685	0.00572	0.00469	0.00356	0.00255	0.00160	0.00061	0.00000	-0.00063	-0.00113	-0.00152	-0.00183	-0.00226	-0.00293	-0.00364	-0.00404	-0.00473		; offset and temperature correction info
c510	Red	18.18396		-0.00549	-0.00480	-0.00383	-0.00272	-0.00202	-0.00118	-0.00044	-0.00038	-0.00015	-0.00021	0.00013	0.00007	-0.00007	0.00000	-0.00007	-0.00065	-0.00045	-0.00018	0.00007	0.00039	-0.00001	-0.00002	-0.00045		; offset and temperature correction info
c532	Magenta	18.26528		-0.00721	-0.00645	-0.00581	-0.00518	-0.00465	-0.00345	-0.00281	-0.00270	-0.00182	-0.00141	-0.00108	-0.00072	-0.00022	0.00000	0.00044	0.00030	0.00031	-0.00006	-0.00052	-0.00089	-0.00142	-0.00149	-0.00154		; offset and temperature correction info
c555	Black	18.37125		-0.00430	-0.00419	-0.00381	-0.00319	-0.00286	-0.00254	-0.00205	-0.00196	-0.00138	-0.00137	-0.00067	-0.00051	-0.00030	0.00000	0.00067	0.00087	0.00057	0.00027	-0.00015	-0.00089	-0.00127	-0.00137	-0.00150		; offset and temperature correction info
a412	LtBlue	15.33566		-0.06011	-0.05567	-0.05012	-0.04441	-0.03922	-0.03412	-0.02941	-0.02503	-0.02049	-0.01588	-0.01121	-0.00784	-0.00311	0.00000	0.00273	0.00611	0.00757	0.00871	0.01066	0.01299	0.01539	0.01781	0.02175		; offset and temperature correction info
a440	LtGreen	16.05925		-0.01380	-0.01214	-0.01039	-0.00858	-0.00690	-0.00532	-0.00426	-0.00322	-0.00230	-0.00158	-0.00055	0.00006	0.00001	0.00000	0.00017	0.00016	-0.00094	-0.00222	-0.00363	-0.00486	-0.00567	-0.00651	-0.00782		; offset and temperature correction info
a488	Yellow	16.82827		0.00255	0.00293	0.00331	0.00354	0.00373	0.00378	0.00363	0.00350	0.00291	0.00225	0.00215	0.00142	0.00099	0.00000	-0.00092	-0.00169	-0.00295	-0.00396	-0.00479	-0.00542	-0.00582	-0.00604	-0.00663		; offset and temperature correction info
c650	Blue	18.49287		-0.00570	-0.00516	-0.00456	-0.00403	-0.00346	-0.00232	-0.00132	-0.00122	-0.00073	-0.00066	-0.00035	-0.00016	0.00003	0.00000	0.00044	0.00078	0.00108	0.00057	0.00040	-0.00042	-0.00033	-0.00029	-0.00034		; offset and temperature correction info
c676	Green	18.50570		0.00299	0.00293	0.00287	0.00293	0.00278	0.00294	0.00317	0.00251	0.00243	0.00215	0.00139	0.00123	0.00068	0.00000	-0.00041	-0.00106	-0.00205	-0.00268	-0.00325	-0.00413	-0.00495	-0.00610	-0.00674		; offset and temperature correction info
c715	Brown	17.88888		0.00826	0.00812	0.00773	0.00790	0.00766	0.00758	0.00753	0.00650	0.00571	0.00461	0.00359	0.00222	0.00101	0.00000	-0.00146	-0.00284	-0.00385	-0.00448	-0.00463	-0.00513	-0.00623	-0.00715	-0.00838		; offset and temperature correction info
a510	Red	17.18050		0.00353	0.00364	0.00354	0.00361	0.00381	0.00381	0.00356	0.00332	0.00277	0.00229	0.00176	0.00116	0.00036	0.00000	-0.00014	-0.00069	-0.00088	-0.00147	-0.00150	-0.00129	-0.00120	-0.00134	-0.00091		; offset and temperature correction info
a532	Magenta	17.40228		0.00550	0.00548	0.00526	0.00479	0.00464	0.00422	0.00393	0.00328	0.00253	0.00212	0.00136	0.00085	0.00039	0.00000	-0.00059	-0.00146	-0.00188	-0.00262	-0.00330	-0.00393	-0.00491	-0.00540	-0.00605		; offset and temperature correction info
a555	Black	17.72308		0.00849	0.00832	0.00800	0.00760	0.00724	0.00655	0.00580	0.00495	0.00435	0.00347	0.00252	0.00153	0.00049	0.00000	-0.00050	-0.00155	-0.00214	-0.00306	-0.00350	-0.00411	-0.00470	-0.00539	-0.00570		; offset and temperature correction info
c412	LtBlue	16.72802		-0.05949	-0.05458	-0.04744	-0.04134	-0.03547	-0.03064	-0.02511	-0.02047	-0.01574	-0.01163	-0.00761	-0.00442	-0.00204	0.00000	0.00100	0.00051	-0.00043	-0.00239	-0.00475	-0.00629	-0.00827	-0.00955	-0.01337		; offset and temperature correction info
c440	LtGreen	17.42637		-0.02723	-0.02503	-0.02216	-0.01930	-0.01691	-0.01394	-0.01125	-0.00926	-0.00732	-0.00582	-0.00401	-0.00226	-0.00093	0.00000	0.00082	0.00123	0.00133	0.00097	0.00038	-0.00003	-0.00022	-0.00023	-0.00125		; offset and temperature correction info
c488	Yellow	18.03666		-0.00640	-0.00554	-0.00465	-0.00357	-0.00276	-0.00154	-0.00067	-0.00031	-0.00014	-0.00012	0.00046	0.00032	0.00020	0.00000	0.00001	-0.00024	-0.00060	-0.00084	-0.00126	-0.00180	-0.00276	-0.00304	-0.00427		; offset and temperature correction info
0.003500	0.004000	0.015000	0.020000	0.015000	0.020000	2500.000000	2000.000000	1000.000000	; maxANoise	maxCNoise	maxADifference	maxCDifference	minACounts	minCCounts	minRCounts	maxTempSdev	maxDepthSdev
0			; auxilliary capabilities
1			; acquisition binsize
0	2.32544	2.47971	2.06230	12.32523	11.92756	11.55669	7.14658	5.33388	3.77323	10.47519	10.30067	9.99469	3.33410	2.96766	2.69317	16.12346	14.31898	12.77517	34.99	6.8	0.00	-2.04	0.01729	0.01198	0.01516	0.01826	0.01889	0.01477	0.00546	0.01512	0.02002	0.01857	0.01287	0.01639	0.01703	0.01760	0.01375	0.00574	0.01613	0.02147
160	2.28344	2.43034	2.01100	12.34540	11.94948	11.57614	7.04402	5.23448	3.68325	10.49159	10.32550	10.01894	3.24431	2.89409	2.62344	16.15660	14.35226	12.80323
330	2.24176	2.40383	1.99204	12.36160	11.95663	11.57571	7.01043	5.25057	3.71844	10.49175	10.31500	10.00481	3.30571	2.97846	2.71625	16.12239	14.31665	12.76973
480	2.33636	2.49438	2.07276	12.32941	11.92962	11.55865	7.15180	5.35233	3.78551	10.47747	10.30397	10.00005	3.34293	2.97459	2.69799	16.12542	14.31587	12.77724
630	2.28835	2.43226	2.00923	12.35015	11.95040	11.57725	7.04182	5.23934	3.68804	10.49299	10.32578	10.01928	3.25309	2.90240	2.62992	16.14868	14.34903	12.80584
800	2.24434	2.40427	1.98965	12.36678	11.96200	11.58351	7.02163	5.24266	3.70561	10.49671	10.32262	10.01806	3.29245	2.95907	2.69478	16.13968	14.33293	12.78711
950	2.31464	2.47422	2.06121	12.34178	11.94079	11.56594	7.14016	5.33912	3.78107	10.48331	10.31257	10.01019	3.34448	2.98331	2.70854	16.12708	14.32524	12.78416
1110	2.29731	2.44794	2.02756	12.35139	11.95468	11.58199	7.05803	5.26119	3.70205	10.49435	10.32970	10.02617	3.26466	2.90612	2.63676	16.14760	14.35356	12.81448
1270	2.24537	2.39766	1.98314	12.38078	11.97901	11.60057	6.99615	5.20610	3.66340	10.50959	10.34474	10.03835	3.23441	2.89289	2.62911	16.16611	14.36242	12.81445
1440	2.24560	2.41333	2.00187	12.37568	11.97316	11.59131	7.04068	5.26479	3.72402	10.50142	10.32836	10.02559	3.30564	2.96736	2.70146	16.14535	14.34780	12.80357
1600	2.30238	2.46124	2.04290	12.36524	11.96691	11.59071	7.11158	5.31074	3.75561	10.50294	10.33170	10.02950	3.32414	2.97073	2.69734	16.14683	14.34268	12.80295	34.99	6.3	0.00	-2.04	0.01728	0.01197	0.01515	0.01827	0.01890	0.01477	0.00545	0.01511	0.02001	0.01858	0.01287	0.01640	0.01702	0.01759	0.01374	0.00574	0.01614	0.02148
1750	2.30008	2.45413	2.03745	12.36326	11.96302	11.58702	7.10094	5.30175	3.74798	10.49910	10.32604	10.02659	3.31717	2.96414	2.69393	16.13833	14.33590	12.79510
1910	2.30019	2.45414	2.03878	12.35378	11.95578	11.58027	7.10320	5.30656	3.75431	10.49213	10.31886	10.02111	3.32353	2.96971	2.69799	16.13481	14.32780	12.79006
2070	2.30165	2.45424	2.03879	12.35473	11.95382	11.58135	7.10316	5.30030	3.74829	10.49270	10.32096	10.02508	3.31395	2.96340	2.69248	16.13442	14.32745	12.79147
2230	2.29902	2.45545	2.03849	12.35436	11.95707	11.58485	7.10243	5.30523	3.75167	10.49453	10.32120	10.02298	3.31598	2.96954	2.69669	16.13676	14.33156	12.79834
2390	2.30048	2.45869	2.03935	12.36092	11.96513	11.58973	7.10166	5.30358	3.75279	10.49724	10.32422	10.02956	3.31720	2.96953	2.69591	16.14331	14.33574	12.79839
2560	2.30008	2.45712	2.04130	12.36366	11.96706	11.59177	7.10806	5.30538	3.75492	10.49898	10.32637	10.03069	3.32332	2.97653	2.70269	16.15514	14.34645	12.81246
2720	2.30621	2.46153	2.04771	12.37615	11.97873	11.60370	7.11803	5.31440	3.76165	10.50766	10.33475	10.03778	3.32332	2.97414	2.70465	16.15730	14.34876	12.81177
2890	2.30459	2.46320	2.04549	12.37721	11.98110	11.60530	7.09993	5.31228	3.75957	10.50796	10.33656	10.04023	3.32397	2.97337	2.70156	16.15818	14.35215	12.81402
3050	2.30509	2.46086	2.04402	12.37730	11.98205	11.60614	7.10869	5.31396	3.75734	10.50828	10.33587	10.04044	3.32091	2.97459	2.70090	16.16004	14.35229	12.81632
3210	2.30014	2.45748	2.04293	12.38613	11.99110	11.61702	7.10464	5.30784	3.75727	10.51544	10.34094	10.04598	3.31858	2.97040	2.69619	16.16707	14.36310	12.82447	34.99	6.2	0.00	-2.04	0.01727	0.01196	0.01514	0.01827	0.01890	0.01478	0.00545	0.01510	0.01999	0.01858	0.01287	0.01640	0.01701	0.01758	0.01373	0.00575	0.01614	0.02149
3380	2.29897	2.45809	2.03740	12.38935	11.99164	11.61679	7.10021	5.30275	3.75178	10.51404	10.34233	10.04402	3.31402	2.97068	2.69860	16.16629	14.36538	12.82822
3540	2.30241	2.45778	2.04015	12.39138	11.99568	11.62039	7.10839	5.30538	3.75597	10.51587	10.34293	10.04561	3.31463	2.96825	2.69305	16.16952	14.36364	12.82556
3710	2.30104	2.45950	2.04257	12.39410	11.99893	11.62425	7.09867	5.30670	3.75446	10.52087	10.34790	10.04957	3.31450	2.97070	2.69818	16.17442	14.37036	12.83343
3870	2.30201	2.45599	2.04022	12.39459	11.99890	11.62533	7.10468	5.30337	3.75132	10.52037	10.34855	10.04996	3.31538	2.97142	2.69803	16.18315	14.37368	12.83770
4040	2.30222	2.45901	2.04033	12.39997	12.00451	11.63236	7.09919	5.30815	3.75368	10.52617	10.35220	10.05380	3.31469	2.96767	2.69535	16.18806	14.37408	12.83717
4200	2.30331	2.45907	2.04413	12.40449	12.00977	11.63913	7.10916	5.30777	3.75706	10.53010	10.35601	10.05775	3.31771	2.97177	2.69938	16.18845	14.38091	12.84085
4370	2.30101	2.45877	2.04017	12.40458	12.00957	11.63666	7.10459	5.30575	3.75487	10.52878	10.35400	10.05613	3.31980	2.97290	2.69981	16.18845	14.38244	12.84477
4530	2.30291	2.45945	2.04010	12.40648	12.01331	11.64364	7.11760	5.31133	3.75510	10.53321	10.35891	10.05870	3.31434	2.96790	2.69648	16.19729	14.38356	12.84317
4690	2.30230	2.46025	2.04321	12.41013	12.01743	11.64740	7.11075	5.31108	3.75947	10.53790	10.36166	10.06263	3.31740	2.97012	2.69776	16.20102	14.38786	12.84934
4860	2.29738	2.45484	2.03535	12.41401	12.01724	11.64809	7.09632	5.30053	3.74917	10.53653	10.35996	10.06169	3.31071	2.96513	2.69153	16.19218	14.39117	12.84878	34.99	6.1	0.00	-2.04	0.01727	0.01196	0.01514	0.01828	0.01890	0.01478	0.00544	0.01509	0.01998	0.01858	0.01287	0.01640	0.01700	0.01757	0.01373	0.00575	0.01615	0.02149
5020	2.29417	2.45079	2.03505	12.41185	12.01712	11.64655	7.09011	5.29768	3.74575	10.53827	10.36133	10.06254	3.31017	2.96071	2.69249	16.19571	14.38864	12.84640
5190	2.29433	2.45399	2.03731	12.41159	12.02183	11.65260	7.10619	5.30290	3.75259	10.54364	10.36724	10.06700	3.31290	2.96700	2.69496	16.19836	14.39638	12.85350
5350	2.29869	2.45533	2.03914	12.41535	12.02161	11.65200	7.09728	5.29940	3.74953	10.54513	10.36680	10.06664	3.31031	2.96528	2.69206	16.19817	14.39774	12.85604
5520	2.29907	2.45477	2.03622	12.42040	12.02642	11.65635	7.10330	5.30453	3.74940	10.54813	10.37111	10.06827	3.30984	2.96466	2.69079	16.19640	14.39545	12.85390
5680	2.29676	2.45459	2.03915	12.42029	12.02811	11.65841	7.10272	5.30303	3.75096	10.55117	10.37300	10.06921	3.31155	2.96375	2.69504	16.20937	14.39935	12.85905
5840	2.29817	2.45357	2.03642	12.42282	12.02845	11.66086	7.09723	5.30179	3.75018	10.55252	10.37486	10.07024	3.31378	2.96604	2.69330	16.20436	14.40404	12.86209
6010	2.30003	2.45631	2.04029	12.42687	12.03082	11.66437	7.08996	5.30505	3.75385	10.55764	10.37975	10.07436	3.31012	2.96621	2.69329	16.20760	14.40456	12.86477
6180	2.29978	2.45786	2.04026	12.42981	12.03509	11.66800	7.10388	5.30654	3.75467	10.56250	10.38468	10.07877	3.31506	2.96716	2.69388	16.21871	14.41261	12.86835
6340	2.29853	2.45574	2.03820	12.43128	12.03596	11.66938	7.10017	5.30443	3.75084	10.56404	10.38472	10.08068	3.31271	2.96729	2.69458	16.20937	14.41182	12.87265
6510	2.29790	2.45198	2.03620	12.43589	12.03911	11.67212	7.09080	5.30075	3.74765	10.56689	10.38870	10.08211	3.31141	2.96657	2.69619	16.21714	14.41843	12.87668	34.99	6.1	0.00	-2.04	0.01726	0.01196	0.01513	0.01828	0.01891	0.01478	0.00544	0.01508	0.01998	0.01858	0.01288	0.01640	0.01699	0.01757	0.01373	0.00575	0.01615	0.02149
6670	2.29701	2.45274	2.03773	12.43657	12.04006	11.67359	7.09268	5.30056	3.74801	10.57050	10.39094	10.08491	3.30853	2.96391	2.69257	16.22127	14.41706	12.87547
6840	2.29784	2.45470	2.03955	12.43963	12.04419	11.67664	7.09624	5.30494	3.75404	10.57631	10.39715	10.08737	3.31329	2.96556	2.69509	16.23092	14.42212	12.87984
7000	2.29631	2.45412	2.03718	12.44255	12.04389	11.67755	7.10255	5.30249	3.74862	10.57500	10.39698	10.08753	3.30918	2.96229	2.69345	16.22964	14.42201	12.87805
7170	2.29711	2.45130	2.03386	12.43894	12.04329	11.67705	7.08743	5.29623	3.74571	10.57742	10.39926	10.08912	3.31121	2.96644	2.69336	16.23043	14.42720	12.88321
7330	2.29728	2.45580	2.03728	12.44511	12.04803	11.68158	7.09590	5.29718	3.74789	10.58277	10.40488	10.09459	3.30922	2.96423	2.69361	16.23270	14.42723	12.88258
7500	2.29851	2.45661	2.03934	12.44700	12.05216	11.68354	7.10593	5.30297	3.75061	10.58789	10.40731	10.09801	3.31356	2.96450	2.69758	16.23605	14.42884	12.88697
7660	2.29812	2.45515	2.03688	12.44768	12.05123	11.68352	7.09499	5.30078	3.74902	10.58767	10.40813	10.09956	3.31187	2.96570	2.69212	16.23112	14.42816	12.88805
7830	2.29458	2.45538	2.03779	12.44929	12.05230	11.68620	7.10038	5.30212	3.75089	10.59106	10.41258	10.10117	3.31080	2.96327	2.69551	16.23841	14.43292	12.89182
7990	2.29665	2.45463	2.03581	12.45262	12.05352	11.68647	7.09778	5.29982	3.74840	10.59053	10.41377	10.10297	3.31174	2.96662	2.69416	16.24226	14.43442	12.89340
8160	2.29656	2.45314	2.03552	12.45543	12.05611	11.68665	7.09283	5.29895	3.74665	10.59434	10.41682	10.10556	3.30697	2.96275	2.69223	16.23808	14.43517	12.89337	35.04	5.9	0.00	-2.04	0.01726	0.01196	0.01513	0.01828	0.01891	0.01478	0.00544	0.01508	0.01997	0.01859	0.01288	0.01640	0.01699	0.01756	0.01372	0.00575	0.01615	0.02150
8320	2.29390	2.45480	2.03661	12.45554	12.05992	11.69279	7.10305	5.30098	3.75110	10.60100	10.42327	10.10936	3.31275	2.96436	2.69331	16.26167	14.44168	12.90153
8490	2.29538	2.45028	2.03494	12.46021	12.06031	11.69190	7.09837	5.29667	3.74760	10.59987	10.42382	10.10969	3.30731	2.96354	2.69216	16.24854	14.44048	12.90116
8650	2.29470	2.45319	2.03554	12.46124	12.06160	11.69529	7.09052	5.29748	3.74553	10.60224	10.42467	10.11219	3.30885	2.96327	2.68986	16.25189	14.44048	12.90166
8820	2.29531	2.45260	2.03470	12.46251	12.06297	11.69670	7.09765	5.29920	3.74926	10.60609	10.42908	10.11615	3.30867	2.96150	2.68958	16.24311	14.44043	12.90244
8980	2.29485	2.45233	2.03693	12.46571	12.06614	11.69918	7.09090	5.29975	3.74854	10.60963	10.43230	10.11847	3.31044	2.96534	2.69377	16.25782	14.44533	12.90678
9150	2.29519	2.45091	2.03333	12.46604	12.06507	11.69841	7.08527	5.29508	3.74682	10.60809	10.43152	10.12052	3.31008	2.96612	2.69498	16.25752	14.44897	12.91301
9310	2.29858	2.45436	2.03733	12.47030	12.07002	11.70255	7.09230	5.30072	3.74831	10.61380	10.43632	10.12423	3.31066	2.96092	2.69078	16.25416	14.44587	12.91032
9480	2.29562	2.45224	2.03735	12.46897	12.06987	11.69984	7.10131	5.29882	3.74937	10.61382	10.43915	10.12443	3.31033	2.96093	2.68805	16.24518	14.44563	12.90949
9640	2.29407	2.45265	2.03779	12.47184	12.07152	11.70431	7.10642	5.30089	3.74846	10.61640	10.44089	10.12707	3.30955	2.96374	2.69080	16.25179	14.45143	12.91231
9810	2.29245	2.45105	2.03198	12.47166	12.06836	11.70526	7.07756	5.29077	3.74317	10.61451	10.43940	10.12650	3.30981	2.96453	2.69158	16.26248	14.45334	12.91639	34.99	6.1	0.00	-2.04	0.01726	0.01195	0.01513	0.01828	0.01891	0.01478	0.00544	0.01508	0.01997	0.01859	0.01288	0.01640	0.01699	0.01756	0.01372	0.00575	0.01615	0.02150
9970	2.29512	2.45389	2.03550	12.47475	12.07510	11.70683	7.08704	5.29728	3.74442	10.61952	10.44324	10.13082	3.30758	2.96257	2.68879	16.25546	14.45257	12.91534
10140	2.29565	2.45329	2.03471	12.47680	12.07683	11.70826	7.08083	5.29548	3.74521	10.62340	10.44665	10.13606	3.30914	2.96448	2.69094	16.27068	14.46014	12.92083
10300	2.29696	2.45411	2.03642	12.48004	12.07856	11.71176	7.09031	5.29798	3.74581	10.62717	10.45175	10.13853	3.30969	2.96211	2.69111	16.26722	14.45998	12.91905
10470	2.29515	2.45487	2.03785	12.48030	12.08102	11.71116	7.09571	5.29395	3.74486	10.62664	10.45273	10.13937	3.30696	2.96214	2.68802	16.26040	14.46030	12.92284
10630	2.29627	2.45175	2.03305	12.48148	12.07853	11.70791	7.08973	5.29190	3.74327	10.62501	10.45140	10.13848	3.30758	2.96090	2.69099	16.26910	14.46006	12.92435
10800	2.29569	2.45113	2.03658	12.48426	12.08262	11.71244	7.09460	5.29671	3.74559	10.62784	10.45498	10.14298	3.30987	2.96030	2.68881	16.26831	14.46157	12.92345
10960	2.29327	2.45149	2.03396	12.48314	12.08474	11.71435	7.08362	5.29853	3.74396	10.62866	10.45895	10.14497	3.30591	2.96168	2.68627	16.26712	14.46124	12.92530
11120	2.29164	2.44784	2.03108	12.48591	12.08262	11.71188	7.09113	5.29177	3.74200	10.62821	10.45678	10.14539	3.30523	2.96155	2.68976	16.27157	14.46486	12.92563
11290	2.29255	2.44956	2.03240	12.48651	12.08707	11.71375	7.08752	5.29204	3.74220	10.63119	10.46061	10.14850	3.30684	2.96254	2.68896	16.26613	14.46220	12.92752
11450	2.29156	2.44730	2.02998	12.48915	12.08560	11.71349	7.07888	5.29082	3.74124	10.63326	10.46122	10.14972	3.30697	2.96313	2.68966	16.27605	14.46967	12.93379	35.04	6.1	0.00	-2.04	0.01726	0.01195	0.01513	0.01828	0.01891	0.01478	0.00544	0.01508	0.01997	0.01859	0.01288	0.01640	0.01698	0.01756	0.01372	0.00575	0.01615	0.02150
11620	2.29585	2.45148	2.03435	12.49306	12.09275	11.71897	7.09053	5.29568	3.74317	10.63680	10.46546	10.15521	3.30368	2.96115	2.68998	16.27497	14.46940	12.93053
11780	2.29145	2.44898	2.03304	12.49214	12.09151	11.71928	7.08384	5.29468	3.74329	10.63778	10.46774	10.15695	3.30474	2.95994	2.68660	16.27536	14.46641	12.93210
11950	2.29312	2.44969	2.03562	12.49430	12.09474	11.72384	7.08784	5.29420	3.74400	10.64171	10.46904	10.16176	3.30592	2.96018	2.68752	16.27160	14.46959	12.93280
12110	2.28962	2.44890	2.03099	12.49358	12.09228	11.72301	7.08302	5.28934	3.74284	10.64042	10.47029	10.16091	3.30617	2.96171	2.69047	16.27962	14.47470	12.93770
12280	2.29331	2.44945	2.03292	12.49869	12.09913	11.72782	7.08158	5.29338	3.74326	10.64472	10.47393	10.16626	3.30390	2.95917	2.68288	16.27873	14.47209	12.93527
12440	2.29199	2.44976	2.03370	12.49830	12.09731	11.72807	7.08346	5.29148	3.74143	10.64556	10.47414	10.16711	3.30180	2.95508	2.68598	16.27902	14.47396	12.93782
12610	2.29096	2.44790	2.03423	12.50153	12.10064	11.73286	7.08553	5.29546	3.74468	10.64818	10.47887	10.17144	3.30376	2.95846	2.68486	16.28437	14.47722	12.94188
12770	2.28880	2.44736	2.03044	12.50177	12.10195	11.73056	7.08427	5.29245	3.74234	10.64765	10.47681	10.17033	3.30287	2.95702	2.68589	16.28625	14.47742	12.93978
12940	2.29045	2.44608	2.03231	12.50231	12.10253	11.73193	7.07677	5.29184	3.74377	10.64815	10.47913	10.17305	3.30360	2.95904	2.68902	16.28655	14.47912	12.94190
13110	2.29186	2.45125	2.03293	12.50514	12.10581	11.73587	7.08027	5.28904	3.74163	10.65256	10.48122	10.17914	3.30468	2.96195	2.68966	16.29260	14.48761	12.94815	34.99	6.1	0.00	-2.04	0.01725	0.01195	0.01513	0.01828	0.01891	0.01478	0.00544	0.01507	0.01996	0.01859	0.01288	0.01640	0.01698	0.01755	0.01372	0.00575	0.01615	0.02150
13270	2.29520	2.45333	2.03243	12.51079	12.11345	11.74044	7.08894	5.29330	3.74481	10.65846	10.48705	10.18144	3.30612	2.95859	2.68415	16.28369	14.48783	12.94767
13440	2.29188	2.44754	2.03164	12.50943	12.10988	11.74024	7.08706	5.29138	3.73955	10.65501	10.48408	10.18126	3.30076	2.95669	2.68302	16.29528	14.48327	12.94568
13600	2.28973	2.44826	2.03286	12.50632	12.11008	11.74136	7.08239	5.29532	3.74356	10.65577	10.48779	10.18395	3.30208	2.95821	2.68379	16.29805	14.48676	12.94922
13770	2.28997	2.44638	2.03052	12.51026	12.11075	11.74013	7.08889	5.29220	3.73829	10.65566	10.48412	10.18254	3.30459	2.95978	2.69000	16.29250	14.49449	12.95335
13930	2.29168	2.44808	2.02991	12.51390	12.11712	11.74416	7.09082	5.29282	3.74439	10.66059	10.48937	10.18721	3.30521	2.95642	2.68625	16.30311	14.49003	12.95097
14090	2.29250	2.45013	2.03391	12.51507	12.11916	11.74697	7.09592	5.29546	3.74360	10.66133	10.49167	10.19097	3.30762	2.95952	2.68892	16.30341	14.49020	12.95332
14260	2.29302	2.45101	2.03368	12.51625	12.11766	11.74522	7.08195	5.29173	3.73879	10.66149	10.49282	10.19191	3.30253	2.95926	2.68870	16.29419	14.49576	12.95672
14420	2.29246	2.45034	2.03241	12.51790	12.12100	11.74942	7.09241	5.29248	3.74267	10.66359	10.49421	10.19285	3.30266	2.95515	2.68439	16.29785	14.49281	12.95443
14590	2.29072	2.44882	2.03445	12.52043	12.12412	11.75275	7.09780	5.29479	3.74386	10.66560	10.49622	10.19849	3.30337	2.95521	2.68595	16.29547	14.49694	12.95792
14750	2.28811	2.44591	2.02966	12.52083	12.12326	11.75302	7.07904	5.28885	3.74005	10.66418	10.49611	10.19541	3.30286	2.95906	2.68530	16.30350	14.49716	12.95661	35.04	6.1	0.00	-2.04	0.01725	0.01195	0.01513	0.01828	0.01891	0.01478	0.00544	0.01507	0.01996	0.01859	0.01288	0.01640	0.01698	0.01755	0.01372	0.00575	0.01616	0.02150
14920	2.29000	2.44430	2.02755	12.51880	12.12398	11.75401	7.08448	5.28996	3.73876	10.66659	10.49792	10.19852	3.30251	2.95729	2.68463	16.30538	14.49846	12.95711
15080	2.29021	2.44399	2.02779	12.51863	12.12229	11.75218	7.08000	5.28725	3.73639	10.66327	10.49432	10.19588	3.30214	2.95815	2.68864	16.30895	14.50234	12.96186
15250	2.29303	2.44817	2.03178	12.52122	12.12611	11.75905	7.08482	5.29354	3.74304	10.66920	10.49920	10.20305	3.30309	2.95696	2.68315	16.30647	14.50259	12.96056
15410	2.28992	2.44593	2.03233	12.52168	12.12678	11.75614	7.09465	5.29008	3.74032	10.66845	10.50099	10.20238	3.30240	2.95780	2.68804	16.30082	14.50099	12.95990
15580	2.29027	2.44816	2.03250	12.52292	12.12831	11.75955	7.10188	5.29403	3.74323	10.67113	10.50224	10.20573	3.30531	2.95827	2.68318	16.30717	14.50104	12.96143
15740	2.28821	2.44693	2.02813	12.52279	12.12695	11.75849	7.08790	5.29058	3.74039	10.66943	10.50132	10.20445	3.30194	2.95866	2.68657	16.31332	14.50371	12.96455
15910	2.29039	2.44719	2.03144	12.52574	12.13358	11.76367	7.08727	5.29190	3.74370	10.67396	10.50631	10.21026	3.30363	2.95770	2.68508	16.31640	14.50534	12.96815
16070	2.29357	2.44894	2.03275	12.52792	12.13411	11.76559	7.08516	5.28977	3.74287	10.67380	10.50762	10.21069	3.30296	2.95918	2.68780	16.31183	14.51002	12.97086
16240	2.29449	2.45114	2.03254	12.53059	12.13821	11.76935	7.09233	5.29564	3.74510	10.67760	10.51026	10.21351	3.30357	2.95823	2.68365	16.31849	14.50854	12.97012
16400	2.29141	2.44780	2.03061	12.53149	12.13766	11.76788	7.09040	5.29219	3.74035	10.67652	10.51069	10.21529	3.30031	2.95696	2.68255	16.31343	14.50950	12.96909	35.04	6.0	0.00	-2.04	0.01725	0.01195	0.01513	0.01828	0.01891	0.01478	0.00544	0.01507	0.01996	0.01859	0.01288	0.01640	0.01698	0.01755	0.01372	0.00575	0.01616	0.02150
16570	2.29075	2.44888	2.03209	12.53333	12.13963	11.77407	7.07755	5.29722	3.74428	10.68069	10.51187	10.21876	3.30171	2.95668	2.68664	16.32396	14.51465	12.97619
16730	2.29019	2.44693	2.03012	12.53401	12.14065	11.77082	7.08535	5.29153	3.73811	10.67908	10.51400	10.21795	3.30105	2.95810	2.68701	16.31978	14.51829	12.97777
16900	2.29209	2.44944	2.03216	12.53874	12.14318	11.77386	7.09354	5.29536	3.74247	10.68207	10.51668	10.22131	3.30205	2.95570	2.68720	16.32784	14.51669	12.97542
17060	2.28898	2.44603	2.03208	12.53529	12.14250	11.77596	7.08920	5.29289	3.74210	10.68157	10.51624	10.22227	3.30069	2.95520	2.68526	16.31750	14.51540	12.97721
17230	2.28970	2.44743	2.03290	12.53877	12.14453	11.77938	7.08915	5.29471	3.74418	10.68379	10.51699	10.22372	3.30366	2.95808	2.68529	16.32376	14.51747	12.97757
17390	2.28838	2.44563	2.02833	12.53903	12.14362	11.77684	7.08472	5.29374	3.74013	10.68432	10.51699	10.22262	3.30297	2.95588	2.68635	16.32048	14.52083	12.98143
17560	2.29286	2.44952	2.03113	12.54241	12.14930	11.78157	7.08891	5.29349	3.74235	10.68805	10.51961	10.22530	3.30178	2.95646	2.68482	16.32853	14.51832	12.98041
17720	2.29131	2.45043	2.03548	12.54410	12.15070	11.78372	7.09918	5.29598	3.74570	10.68907	10.52236	10.22805	3.30590	2.95997	2.68666	16.32833	14.52414	12.98381
17890	2.29087	2.44914	2.03287	12.54461	12.14829	11.78314	7.08597	5.29043	3.74038	10.68790	10.52076	10.22662	3.30259	2.95638	2.68582	16.33132	14.52108	12.98347
18050	2.28940	2.44646	2.02985	12.54366	12.14787	11.78257	7.07354	5.28839	3.73595	10.68727	10.51925	10.22816	3.30060	2.95586	2.68598	16.31882	14.52299	12.98396	35.04	6.1	0.00	-2.04	0.01725	0.01195	0.01512	0.01828	0.01891	0.01478	0.00544	0.01507	0.01996	0.01859	0.01288	0.01640	0.01698	0.01755	0.01372	0.00575	0.01616	0.02150
18220	2.29168	2.44785	2.03246	12.54671	12.15114	11.78566	7.08413	5.29141	3.74197	10.69318	10.52376	10.23102	3.30139	2.95610	2.68804	16.33443	14.52962	12.98767
18380	2.29200	2.44880	2.03211	12.54812	12.15376	11.78981	7.09729	5.29548	3.74559	10.69506	10.52683	10.23230	3.30456	2.95623	2.68556	16.32756	14.52617	12.98700
18550	2.28853	2.44751	2.03207	12.54741	12.15429	11.79008	7.08750	5.29577	3.74541	10.69650	10.52691	10.23380	3.30414	2.96074	2.68636	16.33273	14.52782	12.98889
18710	2.29034	2.44639	2.02983	12.54912	12.15386	11.78793	7.08717	5.29000	3.74112	10.69462	10.52508	10.23243	3.30498	2.96007	2.68619	16.33144	14.53246	12.99080
18880	2.29164	2.44911	2.03079	12.55084	12.15548	11.79062	7.08221	5.29280	3.74082	10.69762	10.52664	10.23559	3.30205	2.95704	2.68584	16.33711	14.53061	12.98866
19040	2.28939	2.44713	2.03217	12.55031	12.15728	11.79467	7.08447	5.29296	3.74182	10.69834	10.53010	10.23677	3.30311	2.95774	2.68489	16.33263	14.53047	12.99115
19200	2.28956	2.44539	2.02948	12.55166	12.15576	11.79142	7.08018	5.28850	3.73749	10.69758	10.52697	10.23465	3.30319	2.95780	2.68659	16.33582	14.53288	12.99542
19370	2.28901	2.44608	2.03047	12.55341	12.15706	11.79373	7.08052	5.28784	3.73883	10.70040	10.52939	10.23863	3.30198	2.95536	2.68451	16.33910	14.53318	12.99212
19530	2.29046	2.44742	2.03350	12.55671	12.16348	11.79902	7.08933	5.29389	3.74124	10.70380	10.53297	10.24088	3.30476	2.95577	2.68448	16.34149	14.53763	12.99493
19700	2.28985	2.44626	2.02811	12.55471	12.15984	11.79404	7.08783	5.28609	3.73717	10.69940	10.53094	10.23781	3.30552	2.95913	2.68858	16.34307	14.53807	12.99916	34.99	6.1	0.00	-2.04	0.01725	0.01195	0.01512	0.01828	0.01891	0.01478	0.00544	0.01507	0.01996	0.01859	0.01288	0.01640	0.01698	0.01755	0.01372	0.00575	0.01616	0.02150
19860	2.29242	2.44606	2.03227	12.55764	12.16463	11.79845	7.08686	5.29354	3.74091	10.70614	10.53409	10.24350	3.30288	2.95605	2.68348	16.34158	14.53542	12.99519
20030	2.29170	2.44832	2.03260	12.56104	12.16841	11.80223	7.08720	5.29321	3.74267	10.71022	10.53768	10.24582	3.30470	2.95621	2.68387	16.34636	14.54064	13.00287
20190	2.28984	2.44454	2.03136	12.56098	12.16626	11.80158	7.09033	5.29125	3.73781	10.70655	10.53693	10.24409	3.30422	2.95793	2.68407	16.34297	14.54647	13.00520
20360	2.29006	2.44590	2.02898	12.56412	12.16932	11.80398	7.08156	5.29177	3.73920	10.71006	10.53891	10.24599	3.30318	2.95155	2.68242	16.34696	14.54249	13.00364
20520	2.28928	2.44672	2.03113	12.56515	12.16987	11.80750	7.08614	5.29541	3.74282	10.71137	10.54043	10.24819	3.30413	2.95791	2.68369	16.34666	14.54658	13.00510
20680	2.28951	2.44544	2.02901	12.56345	12.16883	11.80522	7.08286	5.28974	3.73687	10.71146	10.53916	10.24751	3.30132	2.95366	2.68593	16.34596	14.54631	13.00686
20850	2.28812	2.44414	2.02888	12.56505	12.17006	11.80712	7.08734	5.28985	3.73770	10.71362	10.54202	10.24903	3.30081	2.95398	2.68329	16.35064	14.55109	13.00832
21010	2.28877	2.44369	2.02877	12.56652	12.17047	11.80846	7.08802	5.28893	3.73784	10.71367	10.54089	10.25010	3.30138	2.95677	2.68442	16.35533	14.55162	13.01092
21180	2.29236	2.44867	2.02921	12.57229	12.17474	11.81256	7.08913	5.29080	3.74184	10.71781	10.54450	10.25164	3.30342	2.95908	2.68530	16.36191	14.55652	13.01665
21340	2.29193	2.44976	2.03360	12.57641	12.17917	11.81503	7.09043	5.29674	3.74304	10.72031	10.54726	10.25440	3.30522	2.95789	2.68464	16.36482	14.55281	13.01340	34.99	6.1	0.00	-2.04	0.01725	0.01195	0.01512	0.01828	0.01891	0.01478	0.00544	0.01507	0.01996	0.01859	0.01288	0.01640	0.01698	0.01755	0.01371	0.00575	0.01616	0.02150
21510	2.28851	2.44439	2.02816	12.57348	12.17835	11.81336	7.08383	5.28980	3.73912	10.72050	10.54584	10.25282	3.30298	2.95412	2.68472	16.34926	14.55486	13.01541
21670	2.28922	2.44442	2.02880	12.57472	12.17857	11.81648	7.07526	5.28662	3.73867	10.72096	10.54824	10.25468	3.30439	2.96019	2.68971	16.35694	14.55793	13.01831
21840	2.29130	2.44827	2.03174	12.57872	12.18356	11.82039	7.08571	5.29242	3.74028	10.72490	10.55204	10.25824	3.30343	2.95689	2.68397	16.36093	14.55848	13.01778
22000	2.28760	2.44588	2.03106	12.57716	12.18358	11.81717	7.08017	5.28751	3.73899	10.72373	10.55239	10.25780	3.30009	2.95351	2.68163	16.35943	14.55605	13.01625
22170	2.28662	2.44396	2.02944	12.57640	12.18052	11.81537	7.08378	5.28593	3.73781	10.72373	10.55185	10.25709	3.30211	2.95714	2.68614	16.36742	14.56286	13.02546
22330	2.29219	2.44606	2.03153	12.58509	12.19096	11.82408	7.08975	5.28822	3.74207	10.73314	10.56056	10.26379	3.30312	2.95444	2.68504	16.35933	14.56208	13.02459
22500	2.28932	2.44407	2.03019	12.58418	12.19058	11.82385	7.07978	5.28947	3.73838	10.73277	10.56204	10.26567	3.29979	2.95307	2.68403	16.37241	14.56402	13.02582
22660	2.29047	2.44678	2.03042	12.58673	12.19300	11.82718	7.07016	5.29094	3.73955	10.73602	10.56330	10.26860	3.30000	2.95333	2.68328	16.37421	14.56688	13.02728
22830	2.29017	2.44687	2.03068	12.58664	12.19231	11.82582	7.09197	5.29249	3.73755	10.73387	10.56305	10.26775	3.30062	2.95483	2.68403	16.37631	14.56843	13.03064
22990	2.28936	2.44829	2.03070	12.59081	12.19446	11.82843	7.08729	5.29051	3.74041	10.73866	10.56777	10.26978	3.29951	2.95322	2.68408	16.37242	14.56435	13.02873	34.99	5.9	0.00	-2.04	0.01725	0.01195	0.01512	0.01828	0.01891	0.01478	0.00544	0.01507	0.01996	0.01859	0.01288	0.01640	0.01698	0.01755	0.01372	0.00575	0.01616	0.02150
23160	2.28998	2.44852	2.03295	12.59284	12.19869	11.83348	7.09524	5.29337	3.74199	10.74046	10.56883	10.27305	3.30222	2.95964	2.68531	16.37252	14.57055	13.03513
23320	2.28953	2.44855	2.03166	12.59346	12.19788	11.83246	7.08156	5.28743	3.73851	10.74212	10.56996	10.27303	3.29777	2.95486	2.68107	16.37172	14.57053	13.03261
23490	2.28853	2.44626	2.02887	12.59348	12.19719	11.83212	7.07780	5.28660	3.73913	10.74201	10.56936	10.27373	3.29988	2.95476	2.68193	16.37502	14.57430	13.03626
23650	2.28932	2.44567	2.02899	12.59711	12.20207	11.83552	7.09148	5.28991	3.74025	10.74534	10.57348	10.27629	3.29906	2.95479	2.68216	16.37801	14.57377	13.03606
23820	2.28849	2.44928	2.02977	12.59939	12.20455	11.84009	7.08609	5.29027	3.74114	10.74828	10.57706	10.27781	3.30263	2.95669	2.68413	16.37971	14.57502	13.04011
23980	2.28737	2.44343	2.02861	12.59939	12.20429	11.83803	7.08479	5.28919	3.73784	10.74869	10.57637	10.27766	3.30094	2.95491	2.68448	16.38671	14.57477	13.03903
24150	2.28778	2.44577	2.03149	12.59956	12.20403	11.83984	7.08686	5.28941	3.73756	10.75025	10.57704	10.28075	3.30041	2.95366	2.68229	16.38591	14.57829	13.04117
24310	2.28884	2.44386	2.02804	12.60064	12.20486	11.83988	7.07896	5.28751	3.73736	10.75085	10.57875	10.28065	3.30046	2.95684	2.68540	16.38571	14.57982	13.04544
24480	2.29067	2.44731	2.03114	12.60512	12.20842	11.84213	7.08551	5.28930	3.73831	10.75535	10.58133	10.28569	3.29771	2.95770	2.68318	16.38031	14.58118	13.04487
24640	2.28716	2.44758	2.03132	12.60539	12.21136	11.84570	7.09212	5.29394	3.74294	10.75872	10.58508	10.28736	3.30353	2.95903	2.68273	16.39352	14.58481	13.04761	34.99	6.0	0.00	-2.04	0.01725	0.01195	0.01512	0.01828	0.01891	0.01478	0.00544	0.01507	0.01996	0.01859	0.01288	0.01640	0.01698	0.01755	0.01372	0.00575	0.01616	0.02150
24810	2.29110	2.44844	2.03153	12.60647	12.21203	11.84444	7.08726	5.28865	3.73820	10.75764	10.58466	10.28645	3.30143	2.95635	2.68478	16.38512	14.58392	13.04825
24970	2.29005	2.44569	2.02897	12.60616	12.20998	11.84345	7.08624	5.29057	3.73504	10.75645	10.58261	10.28641	3.29959	2.95772	2.68435	16.39482	14.58564	13.05015
25140	2.28884	2.44540	2.02803	12.60944	12.21304	11.84792	7.08388	5.28917	3.73683	10.75961	10.58615	10.28872	3.29763	2.95395	2.68006	16.39222	14.58628	13.04739
25300	2.28880	2.44787	2.03011	12.61148	12.21643	11.85050	7.07907	5.28785	3.73816	10.76457	10.59143	10.29134	3.30157	2.95640	2.68428	16.40113	14.59153	13.05311
25470	2.28974	2.44648	2.03173	12.61036	12.21552	11.84845	7.07878	5.29073	3.73861	10.76268	10.58925	10.29242	3.29829	2.95367	2.67916	16.39733	14.58928	13.05385
25630	2.28473	2.44323	2.02756	12.61161	12.21793	11.85021	7.07787	5.28484	3.73405	10.76432	10.59080	10.29259	3.29592	2.95331	2.68140	16.40514	14.59400	13.05529
25800	2.28720	2.44483	2.02964	12.61620	12.21960	11.85336	7.07724	5.28542	3.73756	10.76507	10.59130	10.29351	3.29712	2.95171	2.68188	16.39873	14.59200	13.05428
25960	2.28784	2.44601	2.03066	12.61669	12.22170	11.85615	7.07608	5.29364	3.73886	10.76891	10.59539	10.29679	3.29997	2.95574	2.68318	16.39673	14.59508	13.05924
26130	2.28879	2.44374	2.02850	12.61792	12.22067	11.85460	7.07387	5.28527	3.73397	10.76848	10.59399	10.29579	3.30084	2.95879	2.68796	16.40083	14.59842	13.06202
26290	2.29180	2.44546	2.03166	12.62140	12.22577	11.85940	7.09327	5.29287	3.74025	10.77297	10.59865	10.30107	3.29929	2.95594	2.68371	16.40174	14.59839	13.06290	35.04	6.1	0.00	-2.04	0.01725	0.01195	0.01512	0.01828	0.01891	0.01478	0.00544	0.01507	0.01996	0.01859	0.01287	0.01640	0.01698	0.01755	0.01372	0.00575	0.01616	0.02150
26460	2.28860	2.44617	2.02762	12.62233	12.22613	11.85881	7.09607	5.28858	3.73942	10.77380	10.60039	10.30333	3.30126	2.95920	2.68461	16.40615	14.60239	13.06642
26620	2.29051	2.44775	2.03134	12.62658	12.23032	11.86350	7.08691	5.28676	3.73982	10.77660	10.60302	10.30418	3.30123	2.95868	2.68303	16.40856	14.60253	13.06737
26790	2.28849	2.44624	2.03203	12.62491	12.23171	11.86371	7.07997	5.28749	3.73917	10.77780	10.60535	10.30528	3.30398	2.95634	2.68285	16.40104	14.60370	13.06639
26950	2.28904	2.44499	2.03080	12.62486	12.22742	11.86088	7.08474	5.28820	3.73555	10.77393	10.60111	10.30183	3.30155	2.95447	2.68282	16.40786	14.60123	13.06534
27120	2.29001	2.44482	2.02978	12.62695	12.22709	11.86081	7.08127	5.28999	3.73808	10.77561	10.60327	10.30326	3.29718	2.95198	2.68101	16.41578	14.60156	13.06590
27280	2.28709	2.44575	2.03157	12.62637	12.23230	11.86508	7.08609	5.29490	3.74122	10.77850	10.60740	10.30700	3.30243	2.95614	2.68218	16.41257	14.60632	13.07097
27440	2.28679	2.44363	2.02935	12.63011	12.23233	11.86521	7.08826	5.28891	3.73798	10.78115	10.60835	10.30763	3.30241	2.95857	2.68560	16.41026	14.60899	13.07403
27610	2.29018	2.44679	2.02919	12.63346	12.23640	11.87002	7.08835	5.28758	3.73795	10.78523	10.61068	10.31207	3.30211	2.95531	2.68399	16.41046	14.60846	13.07204
27780	2.29177	2.44756	2.03131	12.63552	12.23939	11.87308	7.07011	5.29197	3.74220	10.78756	10.61303	10.31619	3.30085	2.95638	2.68393	16.41688	14.61160	13.07472
27940	2.29129	2.44696	2.03049	12.63419	12.23830	11.87098	7.08037	5.28658	3.73854	10.78566	10.61166	10.31391	3.29945	2.95757	2.68707	16.42450	14.61785	13.07930	34.99	6.1	0.00	-2.04	0.01725	0.01195	0.01512	0.01828	0.01891	0.01478	0.00544	0.01507	0.01996	0.01859	0.01287	0.01640	0.01698	0.01755	0.01371	0.00575	0.01616	0.02150
28110	2.29158	2.44761	2.03188	12.63855	12.24477	11.87670	7.09048	5.29342	3.74163	10.78983	10.61656	10.31578	3.30120	2.95396	2.68448	16.41908	14.61454	13.07822
28270	2.28927	2.44418	2.03013	12.63920	12.24169	11.87614	7.08152	5.28701	3.73908	10.78953	10.61572	10.31650	3.29854	2.95450	2.68032	16.41587	14.61220	13.07802
28440	2.28689	2.44819	2.02941	12.63958	12.24557	11.87927	7.09212	5.28724	3.74058	10.79206	10.61883	10.31941	3.29995	2.95598	2.68234	16.42088	14.61796	13.07987
28600	2.28750	2.44571	2.03003	12.63928	12.24483	11.87590	7.08037	5.28558	3.73579	10.79252	10.61837	10.31885	3.29874	2.95738	2.68538	16.41918	14.62005	13.08573
28770	2.29234	2.44719	2.03107	12.64364	12.24830	11.88039	7.08047	5.29346	3.73870	10.79538	10.62308	10.32174	3.30124	2.95697	2.68268	16.42751	14.61813	13.08327
28930	2.29060	2.44551	2.03029	12.64349	12.25002	11.88252	7.08624	5.28584	3.73995	10.79720	10.62354	10.32329	3.30149	2.95373	2.68255	16.42731	14.62147	13.08480
29100	2.28961	2.44845	2.03244	12.64604	12.25135	11.88336	7.08509	5.29005	3.73779	10.79766	10.62467	10.32592	3.29970	2.95216	2.68239	16.42741	14.62259	13.08844
29260	2.29002	2.44553	2.02901	12.64454	12.24897	11.88195	7.07912	5.28762	3.73675	10.79721	10.62396	10.32426	3.29977	2.95422	2.68434	16.43565	14.62671	13.08930
29430	2.28929	2.44701	2.03204	12.64945	12.25303	11.88479	7.08947	5.28685	3.73970	10.80054	10.63031	10.32882	3.29954	2.95638	2.68260	16.43816	14.62376	13.08979
29590	2.29082	2.44774	2.02867	12.64940	12.25346	11.88468	7.08076	5.28539	3.73938	10.79884	10.62623	10.32696	3.30165	2.95845	2.68625	16.43607	14.62783	13.09076	35.04	6.1	0.00	-2.04	0.01725	0.01195	0.01512	0.01828	0.01891	0.01478	0.00544	0.01507	0.01996	0.01859	0.01287	0.01640	0.01698	0.01755	0.01371	0.00575	0.01616	0.02150
29760	2.29164	2.44813	2.03273	12.64996	12.25457	11.88632	7.08495	5.29268	3.74042	10.80147	10.63004	10.32696	3.29984	2.95591	2.68198	16.42994	14.62671	13.08990
29920	2.28938	2.44921	2.02929	12.65103	12.25360	11.88540	7.08374	5.28664	3.73722	10.80041	10.62791	10.32815	3.30053	2.95445	2.68282	16.43014	14.62641	13.08912
30090	2.29138	2.44801	2.03397	12.65159	12.25597	11.88871	7.08610	5.29126	3.74220	10.80293	10.62957	10.33018	3.30124	2.95380	2.68162	16.43225	14.62761	13.09066
30250	2.28906	2.44524	2.02881	12.65009	12.25393	11.88276	7.09073	5.28734	3.73631	10.79961	10.62745	10.32730	3.29941	2.95489	2.68422	16.43868	14.63073	13.09512
30420	2.29024	2.44745	2.02932	12.65366	12.25801	11.88761	7.08764	5.28899	3.73743	10.80217	10.62983	10.33071	3.30199	2.95564	2.68241	16.43818	14.63190	13.09191
30580	2.28979	2.44640	2.02890	12.65339	12.25695	11.88769	7.08514	5.28778	3.73872	10.80242	10.63231	10.33040	3.29941	2.95407	2.68265	16.43265	14.62989	13.09224
30750	2.28927	2.44561	2.03022	12.65392	12.25962	11.89153	7.08369	5.28956	3.74076	10.80524	10.63616	10.33390	3.30169	2.95621	2.68242	16.44240	14.63374	13.09512
30910	2.29001	2.44430	2.03232	12.65733	12.25929	11.89282	7.08162	5.28766	3.73631	10.80626	10.63322	10.33429	3.29757	2.95442	2.68722	16.44451	14.63848	13.10117
31080	2.29179	2.44602	2.03195	12.66092	12.26382	11.89415	7.07686	5.28917	3.73879	10.80733	10.63587	10.33622	3.29909	2.95431	2.68321	16.43868	14.63795	13.09852
31250	2.29130	2.44729	2.03022	12.66185	12.26453	11.89682	7.08338	5.29098	3.74102	10.80945	10.63960	10.33878	3.30137	2.95677	2.68158	16.45054	14.63681	13.09835	34.99	6.0	0.00	-2.04	0.01725	0.01195	0.01512	0.01828	0.01891	0.01478	0.00544	0.01507	0.01996	0.01858	0.01287	0.01640	0.01698	0.01755	0.01371	0.00575	0.01616	0.02150
31410	2.28890	2.44767	2.03143	12.66338	12.26520	11.89794	7.08058	5.28995	3.74271	10.81248	10.64143	10.33998	3.30291	2.95503	2.68648	16.44310	14.63947	13.09862
31580	2.28918	2.44340	2.03010	12.66134	12.26465	11.89471	7.08323	5.28736	3.73765	10.81012	10.63987	10.33948	3.29729	2.95598	2.68290	16.45135	14.63754	13.09838
31740	2.28808	2.44396	2.03031	12.66246	12.26642	11.89903	7.07760	5.28651	3.73929	10.81275	10.64375	10.34151	3.30157	2.95751	2.68600	16.45407	14.64215	13.10359
31910	2.28943	2.44878	2.03311	12.66607	12.26885	11.89956	7.08569	5.28957	3.73996	10.81646	10.64529	10.34486	3.30137	2.95681	2.68515	16.44622	14.64335	13.10212
32070	2.29141	2.44660	2.03307	12.66590	12.26939	11.90239	7.08391	5.29001	3.73831	10.81561	10.64864	10.34414	3.30100	2.96037	2.68690	16.44702	14.64499	13.10797
32240	2.29364	2.44974	2.03340	12.66868	12.27386	11.90646	7.08781	5.28954	3.74073	10.82057	10.64959	10.34886	3.30105	2.95830	2.68553	16.44511	14.64310	13.10677
32400	2.29222	2.44625	2.03134	12.66915	12.27538	11.90716	7.08814	5.28758	3.73980	10.82030	10.65071	10.34689	3.29703	2.95242	2.68207	16.45195	14.64424	13.10669
32570	2.28987	2.44736	2.03295	12.67148	12.27654	11.91020	7.08313	5.29307	3.74220	10.82456	10.65417	10.35185	3.30070	2.95674	2.68364	16.45226	14.64530	13.11019
32730	2.28826	2.44718	2.03240	12.67152	12.27630	11.90904	7.08468	5.28797	3.73967	10.82259	10.65065	10.34933	3.30138	2.95637	2.68471	16.44662	14.65173	13.11448
32900	2.29184	2.44671	2.03149	12.67553	12.27789	11.91246	7.08050	5.29448	3.73914	10.82661	10.65684	10.35472	3.30246	2.95630	2.68554	16.46062	14.65034	13.11464	35.04	6.1	0.00	-2.04	0.01725	0.01195	0.01512	0.01828	0.01891	0.01478	0.00544	0.01507	0.01996	0.01858	0.01287	0.01640	0.01698	0.01755	0.01371	0.00575	0.01616	0.02150
33060	2.28752	2.44274	2.03059	12.67324	12.27884	11.91523	7.07333	5.29129	3.73973	10.82611	10.65585	10.35262	3.29937	2.95385	2.68267	16.45608	14.65163	13.11456
33230	2.28800	2.44784	2.03258	12.67809	12.28119	11.91694	7.08185	5.28927	3.73794	10.83206	10.66041	10.35824	3.30046	2.95359	2.68180	16.45034	14.65397	13.11646
33390	2.28972	2.44539	2.02985	12.67549	12.27898	11.91341	7.08667	5.28327	3.73434	10.82941	10.66041	10.35621	3.29836	2.95514	2.68174	16.45991	14.65621	13.12012
33560	2.28997	2.44946	2.03340	12.67878	12.28203	11.91787	7.07911	5.29028	3.73942	10.83030	10.65942	10.35893	3.29623	2.95308	2.68027	16.45820	14.65341	13.11808
33720	2.29219	2.44938	2.03548	12.68130	12.28527	11.92189	7.09447	5.29591	3.74508	10.83589	10.66187	10.36166	3.30410	2.95887	2.68824	16.46777	14.65814	13.12317
33890	2.28811	2.44467	2.02967	12.68077	12.28376	11.91764	7.08329	5.29176	3.74024	10.83193	10.66077	10.35973	3.30073	2.95669	2.68264	16.46193	14.65836	13.11963
34050	2.28749	2.44725	2.03077	12.68025	12.28300	11.91981	7.09182	5.28768	3.73843	10.83406	10.66204	10.36122	3.29803	2.95512	2.68341	16.45437	14.65929	13.12230
34220	2.29039	2.44650	2.03026	12.67935	12.28322	11.91882	7.07583	5.28666	3.73657	10.83577	10.66354	10.36300	3.29953	2.95522	2.68534	16.46132	14.66287	13.12261
34380	2.29042	2.44681	2.03148	12.68124	12.28364	11.92178	7.07559	5.28701	3.73937	10.83571	10.66343	10.36512	3.29986	2.95462	2.68195	16.46384	14.66043	13.12291
34550	2.28972	2.44762	2.03042	12.68063	12.28422	11.92381	7.08807	5.29003	3.74076	10.83815	10.66540	10.36570	3.30234	2.95569	2.68406	16.46293	14.66393	13.12345	35.04	6.2	0.00	-2.04	0.01725	0.01195	0.01512	0.01828	0.01891	0.01478	0.00544	0.01507	0.01996	0.01858	0.01287	0.01640	0.01698	0.01755	0.01371	0.00575	0.01615	0.02150
34710	2.28900	2.44644	2.02911	12.67888	12.28365	11.91933	7.08075	5.28882	3.73626	10.83630	10.66276	10.36336	3.30089	2.95734	2.68582	16.46414	14.66603	13.12710
34880	2.29084	2.44833	2.03264	12.68483	12.28731	11.92233	7.08378	5.29052	3.73964	10.83988	10.66637	10.36662	3.30069	2.95322	2.68414	16.46152	14.66136	13.12479
35040	2.29063	2.44635	2.03048	12.68419	12.28686	11.92254	7.08759	5.29128	3.73702	10.83913	10.66698	10.36801	3.30117	2.95593	2.67978	16.46575	14.66256	13.12400
35210	2.28896	2.44644	2.03196	12.68424	12.28982	11.92470	7.07546	5.29312	3.73899	10.84025	10.66873	10.37041	3.30237	2.95454	2.68311	16.47110	14.66461	13.12903
35370	2.28868	2.44397	2.03017	12.68795	12.28986	11.92398	7.08417	5.28416	3.73797	10.83995	10.66816	10.36787	3.30021	2.95601	2.68333	16.47200	14.66645	13.12929
35540	2.28917	2.44579	2.03074	12.68863	12.29178	11.92718	7.07810	5.29337	3.73701	10.84439	10.67205	10.37222	3.29816	2.95360	2.68122	16.46615	14.66184	13.12788
35700	2.29025	2.44813	2.03369	12.69288	12.29596	11.93065	7.08773	5.29302	3.74351	10.84767	10.67645	10.37724	3.30412	2.95759	2.68458	16.47291	14.67298	13.13287
35870	2.29035	2.44699	2.03168	12.69081	12.29523	11.93010	7.08653	5.28929	3.73954	10.84679	10.67554	10.37459	3.30089	2.95435	2.68207	16.47271	14.66796	13.12987
36030	2.28973	2.44407	2.02972	12.69009	12.29499	11.93084	7.07974	5.28842	3.73692	10.84388	10.67419	10.37531	3.29939	2.95551	2.68334	16.47614	14.67032	13.13267
36200	2.29134	2.44750	2.03022	12.69153	12.29629	11.93217	7.08275	5.29027	3.73689	10.84654	10.67577	10.37551	3.29712	2.95231	2.68026	16.47452	14.66776	13.13123	35.04	6.0	0.00	-2.04	0.01725	0.01195	0.01512	0.01828	0.01891	0.01478	0.00544	0.01507	0.01996	0.01858	0.01287	0.01640	0.01698	0.01755	0.01371	0.00575	0.01616	0.02150
36360	2.28919	2.44787	2.03444	12.69452	12.29755	11.93342	7.08313	5.29164	3.74004	10.84958	10.68057	10.37940	3.30196	2.95542	2.68186	16.47634	14.67490	13.13542
36530	2.28817	2.44639	2.02921	12.69537	12.29726	11.93151	7.09156	5.29047	3.73921	10.84839	10.67727	10.37542	3.30430	2.95896	2.68646	16.47614	14.67532	13.13880
36690	2.28955	2.44595	2.02813	12.69761	12.29981	11.93410	7.09113	5.29524	3.74079	10.84979	10.67873	10.37897	3.30110	2.95635	2.68417	16.47695	14.67123	13.13561
36860	2.29011	2.44425	2.02965	12.69759	12.29834	11.93592	7.08771	5.29122	3.73851	10.85123	10.68012	10.37933	3.30256	2.95911	2.68603	16.47271	14.67613	13.13692
37020	2.29085	2.44764	2.03454	12.69821	12.30347	11.93802	7.08121	5.29284	3.74335	10.85375	10.68516	10.38240	3.30257	2.95731	2.68559	16.47856	14.67588	13.14004
37190	2.28840	2.44454	2.03316	12.69823	12.30465	11.93984	7.09870	5.29196	3.74001	10.85360	10.68421	10.38410	3.30142	2.95638	2.68342	16.47695	14.68011	13.14058
37350	2.28773	2.44492	2.02806	12.69744	12.30049	11.93581	7.08641	5.28864	3.73765	10.85150	10.68342	10.38446	3.30100	2.95583	2.68121	16.48331	14.67846	13.14050
37510	2.29019	2.44385	2.03024	12.70138	12.30321	11.94003	7.08101	5.28930	3.73682	10.85480	10.68427	10.38651	3.30041	2.95391	2.68379	16.47604	14.67579	13.14006
37680	2.28789	2.44444	2.03220	12.70107	12.30523	11.93946	7.07880	5.28677	3.73816	10.85716	10.68842	10.38904	3.30172	2.95598	2.68324	16.48775	14.68151	13.14527
37850	2.28948	2.44605	2.03323	12.70209	12.30603	11.94031	7.08995	5.28787	3.73640	10.85561	10.68827	10.38679	3.29906	2.95524	2.68367	16.48806	14.68426	13.14720	35.04	6.1	0.00	-2.04	0.01725	0.01195	0.01512	0.01828	0.01891	0.01478	0.00544	0.01507	0.01996	0.01858	0.01287	0.01640	0.01698	0.01755	0.01371	0.00575	0.01615	0.02150
38010	2.28991	2.44848	2.03155	12.70780	12.30999	11.94336	7.08971	5.28958	3.73977	10.86006	10.69056	10.39096	3.29862	2.95459	2.68042	16.48614	14.68564	13.14725
38170	2.28944	2.44779	2.03177	12.70816	12.31489	11.94567	7.08889	5.29266	3.74229	10.86142	10.69126	10.39425	3.29932	2.95594	2.68449	16.48765	14.68550	13.14798
38340	2.28752	2.44347	2.02799	12.70729	12.31069	11.94402	7.08426	5.28565	3.73683	10.85984	10.69187	10.39346	3.29974	2.95738	2.68476	16.49149	14.68875	13.15231
38510	2.29257	2.44585	2.03318	12.71240	12.31637	11.94919	7.09419	5.29203	3.73954	10.86380	10.69647	10.39559	3.30008	2.95630	2.68333	16.48705	14.68816	13.15053
38670	2.28956	2.44637	2.03242	12.71112	12.31520	11.94767	7.08576	5.28904	3.74041	10.86374	10.69624	10.39586	3.29760	2.95291	2.68195	16.48846	14.68648	13.14958
38840	2.29011	2.44803	2.03214	12.71268	12.31842	11.95180	7.09110	5.29408	3.74049	10.86612	10.69804	10.39763	3.30389	2.95894	2.68462	16.49503	14.68912	13.15163
39000	2.29049	2.44485	2.03150	12.71202	12.31510	11.94805	7.07512	5.28712	3.73888	10.86298	10.69526	10.39691	3.30057	2.95768	2.68610	16.49200	14.69290	13.15765
39170	2.29133	2.44936	2.03281	12.71546	12.31952	11.95452	7.09038	5.29093	3.74181	10.86685	10.69838	10.40194	3.30350	2.95702	2.68237	16.49200	14.69007	13.15296
39330	2.29051	2.44523	2.03181	12.71376	12.31887	11.95263	7.08210	5.28736	3.73793	10.86694	10.70139	10.40205	3.29944	2.95382	2.68265	16.49432	14.69108	13.15376
39500	2.29006	2.44783	2.03251	12.71683	12.32111	11.95462	7.07862	5.28933	3.74043	10.86938	10.70203	10.40279	3.29940	2.95384	2.68212	16.48906	14.69235	13.15491	35.04	6.2	0.00	-2.04	0.01725	0.01195	0.01512	0.01828	0.01891	0.01478	0.00544	0.01507	0.01996	0.01858	0.01287	0.01640	0.01698	0.01755	0.01371	0.00575	0.01615	0.02150
39660	2.28877	2.44499	2.02943	12.71460	12.31959	11.95197	7.08517	5.28855	3.73602	10.86751	10.70063	10.40370	3.29784	2.95542	2.68482	16.49472	14.69443	13.15922
39830	2.28937	2.44529	2.03310	12.71778	12.32351	11.95783	7.09525	5.29121	3.74196	10.87163	10.70538	10.40647	3.30384	2.95999	2.68868	16.50291	14.70013	13.16478
39990	2.29218	2.44832	2.03473	12.72476	12.32648	11.96220	7.09163	5.29055	3.74421	10.87559	10.70969	10.41058	3.30098	2.95794	2.68377	16.50342	14.69965	13.16278
40160	2.29070	2.44365	2.03310	12.72283	12.32838	11.96125	7.07742	5.28836	3.73908	10.87573	10.70886	10.41056	3.30054	2.95774	2.68494	16.50170	14.69715	13.16228
40320	2.28931	2.44595	2.03092	12.72455	12.33012	11.96318	7.08671	5.28944	3.74107	10.87652	10.71198	10.41103	3.30132	2.95749	2.68353	16.50565	14.70041	13.16351
40490	2.28900	2.44532	2.03192	12.72433	12.32650	11.96161	7.07983	5.28728	3.73723	10.87366	10.70986	10.41046	3.30066	2.95550	2.68751	16.49836	14.70558	13.16827
40650	2.29425	2.44938	2.03383	12.72905	12.33536	11.96475	7.08623	5.29310	3.74241	10.87822	10.71308	10.41471	3.30089	2.95625	2.68421	16.49856	14.70049	13.16529
40820	2.29100	2.44695	2.03286	12.72856	12.33308	11.96567	7.07723	5.29023	3.73949	10.88042	10.71508	10.41357	3.30109	2.95445	2.68271	16.50828	14.70007	13.16577
40980	2.29149	2.44938	2.03289	12.73041	12.33491	11.96953	7.08180	5.29065	3.74069	10.88189	10.71569	10.41797	3.30286	2.95625	2.68550	16.50797	14.70679	13.16867
41150	2.29134	2.44685	2.03080	12.73006	12.33328	11.96759	7.07623	5.28629	3.73421	10.88018	10.71421	10.41730	3.30316	2.95903	2.68638	16.50473	14.71034	13.17295	35.04	6.0	0.00	-2.04	0.01725	0.01195	0.01512	0.01828	0.01891	0.01478	0.00544	0.01507	0.01996	0.01858	0.01287	0.01640	0.01698	0.01755	0.01371	0.00575	0.01615	0.02150
41310	2.29313	2.44935	2.03414	12.73433	12.33904	11.97161	7.08056	5.29125	3.73916	10.88207	10.71793	10.41864	3.30267	2.95800	2.68286	16.50260	14.71000	13.17300
41480	2.29099	2.44720	2.03205	12.73362	12.33871	11.97295	7.07878	5.28923	3.73973	10.88351	10.71901	10.42003	3.30164	2.95678	2.68259	16.51121	14.70635	13.17172
41640	2.29028	2.44720	2.03435	12.73481	12.34075	11.97609	7.08942	5.29249	3.74130	10.88619	10.71986	10.42460	3.30200	2.95609	2.68444	16.51648	14.71363	13.17559
41810	2.28904	2.44694	2.02898	12.73651	12.33856	11.97505	7.07728	5.28829	3.73807	10.88481	10.71929	10.42220	3.30270	2.96112	2.68902	16.51962	14.72033	13.18225
41970	2.29265	2.44858	2.03201	12.74262	12.34638	11.97947	7.08253	5.29186	3.74406	10.88933	10.72305	10.42738	3.30215	2.95717	2.68527	16.51496	14.71476	13.17787
42140	2.29197	2.44722	2.03387	12.73866	12.34351	11.97635	7.07695	5.28825	3.73883	10.88924	10.72328	10.42589	3.29998	2.95987	2.68763	16.52063	14.71813	13.18275
42300	2.29239	2.45044	2.03387	12.74472	12.34853	11.98052	7.07868	5.29131	3.74130	10.88996	10.72679	10.42904	3.30250	2.95847	2.68474	16.51779	14.71712	13.18120
42470	2.28852	2.44613	2.03237	12.74438	12.34746	11.97960	7.08022	5.28829	3.73688	10.88897	10.72384	10.42778	3.30303	2.95714	2.68227	16.51161	14.71912	13.18140
42630	2.28879	2.44651	2.03212	12.74565	12.35041	11.98162	7.07931	5.29094	3.73707	10.89111	10.72579	10.42907	3.29954	2.95675	2.68290	16.51911	14.71779	13.18416
42800	2.28927	2.44760	2.03301	12.74633	12.34765	11.98000	7.07521	5.28687	3.73633	10.89040	10.72304	10.42737	3.29933	2.95686	2.68464	16.51799	14.72072	13.18449	34.99	6.1	0.00	-2.04	0.01725	0.01195	0.01512	0.01828	0.01891	0.01478	0.00544	0.01507	0.01996	0.01858	0.01287	0.01640	0.01698	0.01755	0.01371	0.00575	0.01615	0.02150
42960	2.29336	2.44837	2.03154	12.74758	12.34901	11.98119	7.06886	5.28910	3.73948	10.89136	10.72676	10.43042	3.30110	2.95665	2.68200	16.51242	14.71633	13.18208
43130	2.29134	2.44780	2.03177	12.74879	12.35131	11.98357	7.09317	5.29538	3.74157	10.89541	10.73052	10.43325	3.30173	2.95708	2.68752	16.51698	14.72562	13.18737
43290	2.28923	2.44533	2.03196	12.74794	12.34894	11.98334	7.07911	5.28646	3.73630	10.89250	10.72923	10.43111	3.30264	2.96115	2.68771	16.51900	14.72644	13.19178
43460	2.29347	2.44917	2.03484	12.75269	12.35367	11.98642	7.08209	5.28805	3.73974	10.89712	10.73201	10.43354	3.30455	2.95714	2.68640	16.52448	14.72328	13.19084
43620	2.28979	2.44418	2.03249	12.74968	12.35237	11.98508	7.07829	5.28683	3.73848	10.89654	10.73263	10.43535	3.29999	2.95583	2.68259	16.51738	14.72610	13.18945
43790	2.29041	2.44796	2.03338	12.75042	12.35419	11.98683	7.08951	5.28987	3.73827	10.89792	10.73459	10.43664	3.29958	2.95455	2.68457	16.52874	14.72948	13.19499
43950	2.29061	2.44680	2.03216	12.75351	12.35604	11.98945	7.07708	5.29109	3.73727	10.89909	10.73469	10.44086	3.30302	2.95903	2.68475	16.52986	14.72900	13.19519
44120	2.28833	2.44556	2.03235	12.75510	12.35560	11.99290	7.08421	5.28829	3.73939	10.90127	10.73550	10.44005	3.30227	2.95826	2.68399	16.52418	14.72852	13.19371
44280	2.29109	2.44714	2.03451	12.75502	12.35889	11.99503	7.08537	5.29015	3.74140	10.90427	10.73839	10.44212	3.30377	2.95892	2.68735	16.52854	14.73289	13.19799
44450	2.29073	2.44508	2.03287	12.75464	12.35502	11.99158	7.07576	5.28758	3.73862	10.90143	10.73801	10.44078	3.30201	2.95744	2.68718	16.52711	14.73568	13.19976	35.04	6.0	0.00	-2.04	0.01725	0.01195	0.01512	0.01828	0.01891	0.01478	0.00544	0.01507	0.01996	0.01858	0.01287	0.01640	0.01698	0.01755	0.01371	0.00575	0.01615	0.02150
44610	2.29168	2.44980	2.03435	12.75694	12.35820	11.99361	7.08814	5.28877	3.74068	10.90515	10.74111	10.44314	3.30175	2.95636	2.68385	16.52904	14.73343	13.19853
44780	2.29005	2.44724	2.03468	12.75580	12.35865	11.99471	7.08077	5.28799	3.73926	10.90493	10.74139	10.44488	3.30162	2.95656	2.68511	16.53411	14.73526	13.19871
44940	2.29030	2.44995	2.03690	12.75834	12.35986	11.99491	7.09537	5.29502	3.73904	10.90610	10.74339	10.44564	3.30079	2.95638	2.68516	16.53655	14.73340	13.19941
45110	2.29048	2.44876	2.03655	12.75805	12.36130	11.99623	7.08795	5.29105	3.73986	10.90778	10.74407	10.44768	3.30336	2.95645	2.68321	16.53472	14.73743	13.20070
45270	2.29192	2.44640	2.03159	12.75783	12.36000	11.99629	7.08462	5.28561	3.73817	10.90587	10.74139	10.44628	3.30035	2.95644	2.68587	16.53604	14.73907	13.20246
45440	2.29161	2.44850	2.03492	12.76186	12.36263	11.99851	7.08915	5.29039	3.74293	10.90888	10.74639	10.44854	3.30336	2.95751	2.68460	16.53848	14.73769	13.20141
45600	2.28820	2.44578	2.03343	12.76080	12.36298	11.99874	7.09513	5.29229	3.74177	10.90933	10.74578	10.44927	3.30252	2.95808	2.68484	16.53452	14.73783	13.20222
45760	2.28893	2.44665	2.03222	12.75957	12.36000	11.99723	7.08014	5.28910	3.73951	10.90637	10.74131	10.44751	3.30279	2.95778	2.68703	16.54081	14.73723	13.20321
45930	2.28990	2.44768	2.03254	12.76203	12.36296	11.99751	7.08477	5.28674	3.73799	10.90823	10.74524	10.44839	3.29926	2.95503	2.68293	16.53492	14.73656	13.20046
46090	2.28925	2.44649	2.03086	12.76109	12.36273	11.99818	7.07424	5.28833	3.73774	10.90645	10.74263	10.44737	3.30241	2.95449	2.68256	16.53522	14.73704	13.20313	35.04	6.1	0.00	-2.04	0.01725	0.01195	0.01512	0.01828	0.01891	0.01478	0.00544	0.01507	0.01996	0.01858	0.01287	0.01640	0.01698	0.01755	0.01371	0.00575	0.01615	0.02150
46260	2.28974	2.44771	2.03288	12.76145	12.36173	11.99606	7.08893	5.28837	3.73839	10.90852	10.74314	10.44799	3.30019	2.95838	2.68447	16.53491	14.73916	13.20280
46420	2.28955	2.44676	2.03251	12.76333	12.36435	11.99901	7.07804	5.28806	3.73895	10.91050	10.74548	10.45013	3.30109	2.95369	2.68272	16.53136	14.73814	13.20318
46590	2.29103	2.44797	2.03389	12.76554	12.36687	12.00105	7.07761	5.29442	3.74361	10.91271	10.74693	10.45096	3.30355	2.95850	2.68444	16.54294	14.74119	13.20639
46750	2.28943	2.44448	2.03209	12.76499	12.36596	11.99839	7.07491	5.28790	3.73738	10.91091	10.74740	10.45227	3.29983	2.95970	2.68790	16.54141	14.74576	13.21046
46920	2.29344	2.44912	2.03469	12.77125	12.37019	12.00276	7.08700	5.29357	3.74094	10.91545	10.75264	10.45419	3.30262	2.95498	2.68299	16.54192	14.74336	13.20778
47080	2.28870	2.44742	2.03088	12.76921	12.36935	12.00252	7.07121	5.28626	3.73907	10.91337	10.75134	10.45409	3.29961	2.95395	2.68440	16.53695	14.74172	13.20713
47250	2.28762	2.44793	2.03143	12.76981	12.37026	12.00515	7.08425	5.29279	3.73988	10.91611	10.75322	10.45694	3.30018	2.95622	2.68107	16.53938	14.74136	13.20757
47410	2.28810	2.44601	2.03151	12.76613	12.36930	12.00308	7.08223	5.28917	3.73730	10.91372	10.75058	10.45528	3.29820	2.95444	2.68287	16.54578	14.74392	13.20899
47580	2.29073	2.44855	2.03506	12.77127	12.37242	12.00606	7.08550	5.29036	3.74127	10.91746	10.75292	10.45797	3.30349	2.95955	2.68638	16.55117	14.75002	13.21433
47740	2.29332	2.45008	2.03402	12.77528	12.37318	12.00753	7.08437	5.29203	3.74270	10.91856	10.75558	10.45977	3.30178	2.95600	2.68424	16.53919	14.74662	13.21199	35.04	6.1	0.00	-2.04	0.01725	0.01195	0.01512	0.01828	0.01891	0.01478	0.00544	0.01507	0.01996	0.01858	0.01287	0.01640	0.01698	0.01755	0.01371	0.00575	0.01615	0.02150
47910	2.28947	2.44630	2.02950	12.77224	12.37245	12.00606	7.08601	5.28515	3.73612	10.91697	10.75272	10.45823	3.29960	2.95497	2.68369	16.54661	14.74532	13.21167
48070	2.28754	2.44600	2.03208	12.77118	12.37290	12.00612	7.08408	5.28803	3.73728	10.91623	10.75504	10.45963	3.29915	2.95705	2.68188	16.54061	14.74428	13.21201
48240	2.29058	2.44453	2.03222	12.77231	12.37264	12.00484	7.08080	5.28543	3.73692	10.91745	10.75515	10.45818	3.30015	2.95515	2.68281	16.54244	14.74812	13.21221
48400	2.29038	2.44692	2.03186	12.77512	12.37525	12.00851	7.07310	5.28958	3.73855	10.92023	10.75564	10.46302	3.29944	2.95544	2.68259	16.53828	14.74784	13.21343
48570	2.28950	2.44827	2.03439	12.77883	12.38023	12.01201	7.09429	5.29184	3.74172	10.92314	10.75843	10.46404	3.30251	2.95572	2.68242	16.55983	14.75184	13.21760
48730	2.28916	2.44603	2.03051	12.77744	12.37771	12.01080	7.08215	5.28578	3.73992	10.92034	10.75831	10.46108	3.29989	2.95715	2.68685	16.55037	14.75566	13.22199
48900	2.29132	2.44899	2.03482	12.78084	12.38065	12.01389	7.09420	5.29056	3.73763	10.92404	10.76253	10.46554	3.29948	2.95532	2.68430	16.55352	14.75433	13.22105
49060	2.29000	2.44849	2.03254	12.78167	12.38242	12.01490	7.08254	5.28674	3.73595	10.92457	10.76291	10.46556	3.29971	2.95409	2.68333	16.55047	14.75625	13.21930
49230	2.29151	2.44644	2.03263	12.78346	12.38265	12.01692	7.08706	5.29211	3.74092	10.92475	10.76396	10.46772	3.30180	2.95528	2.68176	16.56136	14.75840	13.22286
49390	2.28885	2.44462	2.03113	12.78441	12.38326	12.01706	7.08350	5.28883	3.73906	10.92383	10.76375	10.46572	3.29994	2.95633	2.68499	16.56615	14.75735	13.22608	35.04	6.1	0.00	-2.04	0.01725	0.01195	0.01512	0.01828	0.01891	0.01478	0.00544	0.01507	0.01996	0.01858	0.01287	0.01640	0.01698	0.01755	0.01371	0.00575	0.01615	0.02150
49560	2.29039	2.44690	2.03403	12.78642	12.38593	12.01768	7.08268	5.28894	3.73983	10.92512	10.76544	10.46785	3.29824	2.95530	2.68180	16.54966	14.75789	13.22431
49720	2.28946	2.44770	2.03531	12.78890	12.38951	12.02306	7.08330	5.29474	3.74264	10.92988	10.77007	10.47236	3.30329	2.95777	2.68365	16.55943	14.76541	13.22834
49890	2.29018	2.44724	2.03218	12.78838	12.38919	12.02015	7.07565	5.29112	3.73969	10.92979	10.76881	10.47079	3.30048	2.95422	2.68019	16.56696	14.76314	13.22611
50050	2.28731	2.44632	2.03232	12.78749	12.38625	12.01930	7.06992	5.28685	3.73645	10.92752	10.76565	10.47044	3.29918	2.95457	2.68155	16.56208	14.76475	13.22755
50220	2.28810	2.44757	2.03205	12.78920	12.38889	12.02127	7.08518	5.28711	3.73646	10.93018	10.76762	10.47075	3.30068	2.95546	2.68195	16.56645	14.76532	13.23084
50380	2.29083	2.44808	2.03266	12.79190	12.39124	12.02488	7.08465	5.29000	3.73976	10.93342	10.76984	10.47312	3.29987	2.95517	2.68058	16.56859	14.76665	13.22854
50550	2.28875	2.44686	2.03210	12.78981	12.39212	12.02240	7.08292	5.29373	3.73916	10.93262	10.77159	10.47529	3.30113	2.95623	2.68202	16.56574	14.76835	13.22882
50710	2.28696	2.44424	2.03006	12.78935	12.38903	12.02229	7.08089	5.28527	3.73656	10.93060	10.76996	10.47224	3.29740	2.95567	2.68151	16.55699	14.76736	13.23242
50880	2.28776	2.44803	2.03403	12.79232	12.39222	12.02539	7.09357	5.28915	3.73834	10.93373	10.77037	10.47579	3.29841	2.95457	2.68098	16.55038	14.76427	13.22880
51040	2.28687	2.44567	2.03217	12.78865	12.39130	12.02640	7.08558	5.28950	3.73844	10.93481	10.77260	10.47734	3.29836	2.95481	2.68236	16.57033	14.76820	13.23207	35.04	6.2	0.00	-2.04	0.01725	0.01195	0.01512	0.01828	0.01891	0.01478	0.00544	0.01507	0.01996	0.01858	0.01287	0.01640	0.01698	0.01755	0.01371	0.00575	0.01615	0.02150
51210	2.28640	2.44278	2.02776	12.79253	12.38964	12.02349	7.07956	5.28425	3.73330	10.93256	10.77177	10.47416	3.30138	2.95682	2.68299	16.56952	14.76820	13.23526
51370	2.28921	2.44935	2.02957	12.79677	12.39470	12.02652	7.08264	5.28796	3.73585	10.93589	10.77378	10.47685	3.29682	2.95352	2.68212	16.56595	14.76653	13.23206
51530	2.28731	2.44714	2.03205	12.79436	12.39507	12.02757	7.08327	5.28577	3.73793	10.93788	10.77660	10.48021	3.29789	2.95352	2.68228	16.56728	14.77111	13.23612
51700	2.28728	2.44660	2.02859	12.79500	12.39347	12.02755	7.09093	5.28203	3.73402	10.93568	10.77570	10.47857	3.29768	2.95459	2.68272	16.56320	14.77080	13.23766
51860	2.28867	2.44754	2.03169	12.79740	12.39647	12.02862	7.07990	5.28417	3.73613	10.93788	10.77685	10.47878	3.29958	2.95209	2.67931	16.56239	14.76797	13.23437
52030	2.29188	2.44663	2.03362	12.79875	12.39780	12.03161	7.09961	5.29052	3.74068	10.93894	10.78051	10.48158	3.30202	2.95673	2.68208	16.55750	14.77315	13.23951
52190	2.28804	2.44615	2.03352	12.79710	12.39780	12.03196	7.07268	5.28714	3.73557	10.93900	10.77818	10.48222	3.29798	2.95507	2.68328	16.56361	14.77273	13.23806
52360	2.28894	2.44506	2.02957	12.79881	12.39727	12.02975	7.09180	5.28242	3.73561	10.94020	10.77788	10.48324	3.29845	2.95274	2.68206	16.56330	14.77108	13.23984
52520	2.28803	2.44713	2.03291	12.79934	12.39803	12.03277	7.08129	5.28695	3.73804	10.94295	10.78166	10.48356	3.29841	2.95424	2.68069	16.56829	14.77454	13.23876
52690	2.29056	2.44657	2.03093	12.80235	12.39939	12.03624	7.09071	5.28618	3.73608	10.94232	10.78183	10.48492	3.29900	2.95274	2.67961	16.56635	14.77573	13.24140	35.10	6.1	0.00	-2.04	0.01725	0.01195	0.01512	0.01828	0.01891	0.01478	0.00543	0.01507	0.01996	0.01858	0.01287	0.01640	0.01698	0.01755	0.01371	0.00575	0.01615	0.02150
52850	2.28900	2.44612	2.03192	12.79940	12.39797	12.03470	7.07597	5.28367	3.73504	10.94229	10.77995	10.48513	3.29815	2.95241	2.68099	16.57450	14.77754	13.24308
53020	2.28946	2.44799	2.03412	12.80290	12.40157	12.03615	7.09220	5.28855	3.73867	10.94452	10.78452	10.48511	3.29869	2.95185	2.67940	16.57603	14.77482	13.24310
53180	2.28747	2.44696	2.03363	12.80324	12.40052	12.03626	7.08001	5.28815	3.73899	10.94287	10.78388	10.48551	3.29896	2.95488	2.67930	16.57675	14.78020	13.24437
53350	2.28679	2.44716	2.03203	12.80564	12.40330	12.03656	7.08088	5.29253	3.73956	10.94502	10.78322	10.48794	3.30224	2.95521	2.68230	16.57756	14.77508	13.23932
53520	2.28618	2.44538	2.02984	12.80288	12.40509	12.03906	7.07943	5.29236	3.74200	10.94891	10.78688	10.48917	3.30506	2.96247	2.68482	16.56696	14.77992	13.24550
53680	2.29228	2.44839	2.03038	12.80439	12.40323	12.03752	7.08603	5.27876	3.73235	10.94600	10.78542	10.48882	3.29855	2.95649	2.68283	16.57736	14.77859	13.24293
53850	2.29141	2.44913	2.03361	12.80104	12.39883	12.03451	7.08237	5.28252	3.73086	10.94324	10.78238	10.48745	3.29496	2.95127	2.68251	16.58052	14.78185	13.24905
54010	2.28834	2.44612	2.03344	12.80722	12.40423	12.03819	7.07217	5.29060	3.73981	10.94693	10.78611	10.48950	3.29636	2.95132	2.67828	16.57705	14.77998	13.24533
54180	2.28438	2.44387	2.03132	12.81050	12.40930	12.04414	7.07245	5.29653	3.74312	10.94959	10.78824	10.49246	3.30492	2.96043	2.68703	16.58297	14.78312	13.25044
54340	2.28858	2.44510	2.02734	12.81001	12.40869	12.04107	7.07411	5.28172	3.73455	10.94919	10.78683	10.49247	3.30100	2.95868	2.68571	16.58379	14.78017	13.24716	34.99	6.1	0.00	-2.04	0.01725	0.01195	0.01512	0.01828	0.01891	0.01478	0.00544	0.01507	0.01996	0.01858	0.01287	0.01640	0.01698	0.01755	0.01371	0.00575	0.01615	0.02150
54510	2.28903	2.44645	2.03026	12.80618	12.40455	12.03745	7.06272	5.28138	3.73046	10.94743	10.78822	10.48895	3.29601	2.95494	2.68208	16.59267	14.78513	13.25039
54670	2.28959	2.44739	2.03275	12.80825	12.40766	12.04113	7.08413	5.28740	3.73727	10.94930	10.78625	10.49105	3.29448	2.95246	2.67897	16.57431	14.78471	13.24670
54840	2.28947	2.44850	2.03221	12.81083	12.40924	12.04195	7.09405	5.29098	3.74018	10.95127	10.79113	10.49365	3.29914	2.95332	2.68059	16.58869	14.78397	13.25006
55000	2.28550	2.44373	2.02879	12.80980	12.40704	12.03953	7.07541	5.28865	3.73586	10.94696	10.78745	10.49084	3.30133	2.95672	2.68414	16.59022	14.78624	13.25290
55170	2.29021	2.44615	2.02982	12.81342	12.40992	12.04233	7.07772	5.28597	3.73747	10.95002	10.79299	10.49181	3.29972	2.95632	2.68369	16.59237	14.78626	13.24908
55330	2.28794	2.44396	2.03275	12.81035	12.40955	12.04332	7.08480	5.28629	3.73686	10.95056	10.79061	10.49375	3.29915	2.95286	2.68038	16.57533	14.78564	13.24833
55500	2.28928	2.44602	2.03076	12.81324	12.41225	12.04505	7.08114	5.28605	3.73731	10.95351	10.79192	10.49653	3.29932	2.95381	2.68098	16.58808	14.78530	13.25121
55660	2.28665	2.44324	2.03197	12.81244	12.40948	12.04175	7.08750	5.28705	3.73667	10.95120	10.79130	10.49517	3.29700	2.95128	2.67855	16.57880	14.78575	13.25006
55830	2.28752	2.44609	2.03271	12.81054	12.41069	12.04276	7.08538	5.28656	3.73536	10.95147	10.78764	10.49313	3.29705	2.95430	2.68037	16.58033	14.78553	13.24934
55990	2.28848	2.44525	2.02808	12.80998	12.40869	12.04340	7.07847	5.28457	3.73575	10.95206	10.79146	10.49485	3.29879	2.95490	2.68363	16.58094	14.78491	13.25151	35.04	6.1	0.00	-2.04	0.01725	0.01195	0.01512	0.01828	0.01891	0.01478	0.00544	0.01507	0.01996	0.01858	0.01287	0.01639	0.01698	0.01755	0.01371	0.00575	0.01615	0.02150
56160	2.28657	2.44573	2.03180	12.81280	12.41190	12.04738	7.08498	5.28521	3.73575	10.95432	10.79258	10.49582	3.29919	2.95351	2.68139	16.57676	14.78409	13.24897
56320	2.28540	2.44430	2.03042	12.81251	12.41125	12.04775	7.07722	5.28661	3.73898	10.95491	10.79497	10.49833	3.29982	2.95557	2.68334	16.57931	14.78788	13.25434
56490	2.28796	2.44511	2.02933	12.81472	12.41217	12.04608	7.07790	5.28751	3.73442	10.95408	10.79341	10.49606	3.29802	2.95307	2.68360	16.57890	14.78536	13.25268
56650	2.28742	2.44666	2.03259	12.81297	12.40994	12.04445	7.07732	5.28222	3.73480	10.95441	10.79489	10.49762	3.29974	2.95351	2.68248	16.58533	14.79004	13.25646
56820	2.28890	2.44509	2.02996	12.81724	12.41433	12.05081	7.07674	5.28687	3.73466	10.95747	10.79737	10.50144	3.29737	2.95145	2.67927	16.58329	14.78746	13.25562
56980	2.28996	2.44598	2.03480	12.81935	12.41959	12.05285	7.08319	5.29218	3.73978	10.96157	10.80210	10.50550	3.30284	2.95597	2.68203	16.59206	14.79474	13.26058
57150	2.28844	2.44412	2.03131	12.81945	12.41775	12.04863	7.07958	5.28774	3.73838	10.95781	10.79778	10.50137	3.29769	2.95377	2.68030	16.58339	14.79032	13.25594
57310	2.28765	2.44464	2.02840	12.81524	12.41268	12.04605	7.07260	5.27861	3.73081	10.95519	10.79502	10.50005	3.29674	2.95355	2.68136	16.58931	14.79128	13.25819
57480	2.28967	2.44543	2.03004	12.81848	12.41661	12.05188	7.08276	5.28867	3.73874	10.95868	10.80011	10.50139	3.29712	2.95095	2.67946	16.58859	14.78896	13.25440
57640	2.28653	2.44494	2.03238	12.81980	12.41986	12.05350	7.07536	5.29262	3.73822	10.96067	10.79931	10.50421	3.29904	2.95361	2.68011	16.59594	14.79289	13.25941	35.04	6.2	0.00	-2.04	0.01725	0.01195	0.01512	0.01828	0.01891	0.01478	0.00544	0.01507	0.01996	0.01858	0.01287	0.01639	0.01698	0.01755	0.01371	0.00575	0.01615	0.02150
57810	2.28727	2.44531	2.02861	12.81871	12.41635	12.05109	7.08282	5.28513	3.73299	10.95840	10.79912	10.50178	3.29782	2.95296	2.68447	16.59574	14.79547	13.26412
57970	2.28936	2.44706	2.03275	12.82203	12.42281	12.05384	7.08176	5.28597	3.73692	10.96242	10.80417	10.50618	3.29719	2.95145	2.68254	16.59247	14.79445	13.25908
58140	2.28505	2.44449	2.03010	12.82178	12.41993	12.05302	7.07526	5.28366	3.73413	10.96170	10.80032	10.50537	3.29785	2.95209	2.67961	16.60115	14.79403	13.25953
58300	2.28904	2.44507	2.03039	12.82301	12.41944	12.05407	7.08672	5.28461	3.73547	10.96201	10.80218	10.50547	3.29573	2.95227	2.68025	16.59288	14.79740	13.26102
58470	2.28559	2.44381	2.03183	12.82184	12.42144	12.05658	7.07945	5.28817	3.73774	10.96265	10.80550	10.50801	3.29747	2.95164	2.68067	16.59441	14.79641	13.26180
58630	2.28736	2.44164	2.03006	12.82497	12.42302	12.05446	7.07459	5.28309	3.73258	10.96129	10.80235	10.50603	3.29838	2.95409	2.68161	16.58849	14.79681	13.26279
58800	2.28757	2.44602	2.02960	12.82644	12.42497	12.05495	7.07998	5.28573	3.73465	10.96401	10.80387	10.50664	3.29865	2.95229	2.68100	16.59063	14.79604	13.26315
58960	2.28613	2.44613	2.03187	12.82369	12.42685	12.06212	7.08518	5.28685	3.73820	10.96650	10.80775	10.51296	3.29984	2.95421	2.68114	16.59727	14.80200	13.26549
59130	2.28747	2.44394	2.03047	12.82764	12.42733	12.06064	7.08267	5.28480	3.73628	10.96568	10.80792	10.51131	3.29685	2.95260	2.68045	16.59972	14.80001	13.26343
59290	2.28371	2.44008	2.02766	12.82451	12.42576	12.05714	7.06979	5.28379	3.73338	10.96567	10.80660	10.50913	3.29623	2.95401	2.68082	16.59809	14.80032	13.26494	35.04	6.1	0.00	-2.04	0.01725	0.01195	0.01512	0.01828	0.01891	0.01478	0.00544	0.01507	0.01996	0.01858	0.01287	0.01639	0.01698	0.01755	0.01371	0.00575	0.01615	0.02150
59460	2.28665	2.44363	2.02869	12.82672	12.42599	12.05797	7.08216	5.28476	3.73255	10.96643	10.80653	10.51057	3.29464	2.95257	2.67804	16.58727	14.79476	13.26291
59620	2.28712	2.44329	2.03125	12.82909	12.42862	12.06130	7.07532	5.28762	3.73649	10.96888	10.80760	10.51215	3.29768	2.95309	2.67942	16.59431	14.80071	13.26601
59790	2.28445	2.44169	2.02800	12.82783	12.42676	12.05924	7.08384	5.27850	3.73299	10.96654	10.80769	10.51208	3.29883	2.95503	2.68407	16.59513	14.80293	13.27024
59950	2.28846	2.44603	2.03152	12.83056	12.43091	12.06434	7.08240	5.28376	3.73483	10.97018	10.81180	10.51492	3.29611	2.95135	2.67434	16.59758	14.80446	13.26742
60120	2.28475	2.44124	2.02870	12.82945	12.42896	12.06353	7.08115	5.28407	3.73430	10.96971	10.81266	10.51644	3.29495	2.94915	2.67637	16.59390	14.80051	13.26802
60280	2.28349	2.44229	2.03139	12.83231	12.43251	12.06535	7.07941	5.28434	3.73803	10.97364	10.81429	10.51810	3.29658	2.95343	2.68086	16.60238	14.80148	13.26821
60450	2.28644	2.44097	2.02708	12.83061	12.43072	12.06321	7.07426	5.28177	3.73160	10.97157	10.81228	10.51413	3.29690	2.95155	2.68163	16.59921	14.80222	13.27193
60610	2.28489	2.44280	2.02950	12.83434	12.43147	12.06394	7.07941	5.28398	3.73477	10.97275	10.81301	10.51664	3.29346	2.95079	2.67725	16.60350	14.80148	13.26981
60780	2.28670	2.44485	2.02806	12.83413	12.43207	12.06593	7.07513	5.28180	3.73396	10.97310	10.81303	10.51657	3.29585	2.95331	2.67913	16.59880	14.80437	13.26976
60940	2.28731	2.44361	2.03015	12.83220	12.43263	12.06566	7.07439	5.28313	3.73317	10.97391	10.81231	10.51635	3.29334	2.94873	2.67705	16.60268	14.80418	13.26968	35.04	6.2	0.00	-2.04	0.01725	0.01195	0.01512	0.01828	0.01891	0.01478	0.00544	0.01507	0.01996	0.01858	0.01287	0.01639	0.01698	0.01755	0.01371	0.00575	0.01615	0.02150
61110	2.28393	2.44265	2.03068	12.83117	12.43261	12.06686	7.07520	5.28527	3.73793	10.97383	10.81426	10.51738	3.29635	2.95156	2.67914	16.59675	14.80478	13.27136
61270	2.28624	2.43996	2.02956	12.83192	12.43138	12.06291	7.07915	5.28316	3.73259	10.97113	10.81066	10.51491	3.29546	2.95274	2.68090	16.59951	14.80776	13.27437
61440	2.28936	2.44507	2.03186	12.83656	12.43382	12.06753	7.08146	5.28445	3.73560	10.97403	10.81475	10.51840	3.29851	2.95179	2.67941	16.60176	14.80483	13.27248
61600	2.28648	2.44111	2.02927	12.83394	12.43474	12.06901	7.07174	5.28642	3.73530	10.97622	10.81619	10.51986	3.29617	2.95465	2.67768	16.60339	14.80932	13.27413
61760	2.28508	2.44166	2.02700	12.83449	12.43384	12.06725	7.08329	5.27892	3.73151	10.97270	10.81342	10.51748	3.29592	2.95285	2.68061	16.59808	14.80728	13.27329
61930	2.28562	2.43764	2.02617	12.83262	12.43370	12.06742	7.06986	5.28044	3.73142	10.97329	10.81495	10.51908	3.29403	2.94877	2.67870	16.60421	14.80466	13.27138
62090	2.28236	2.44052	2.02440	12.83148	12.43294	12.06502	7.06828	5.27695	3.73033	10.97110	10.81106	10.51757	3.29800	2.95255	2.67931	16.60523	14.81026	13.27561
62260	2.28672	2.44291	2.02841	12.83757	12.43590	12.06976	7.08618	5.28261	3.73299	10.97604	10.81617	10.52007	3.29391	2.94925	2.67748	16.60339	14.80884	13.27439
62420	2.28541	2.44415	2.03095	12.83938	12.43831	12.07380	7.07771	5.28455	3.73493	10.97882	10.82087	10.52539	3.29716	2.95142	2.68000	16.61413	14.81375	13.27957
62590	2.28623	2.44197	2.02842	12.83941	12.43686	12.07191	7.07479	5.28180	3.73267	10.97816	10.81898	10.52195	3.29588	2.95115	2.67846	16.61187	14.81729	13.28156	35.04	6.1	0.00	-2.04	0.01725	0.01195	0.01512	0.01828	0.01891	0.01478	0.00544	0.01507	0.01996	0.01858	0.01287	0.01639	0.01698	0.01755	0.01371	0.00575	0.01615	0.02150
62750	2.28766	2.44225	2.02782	12.84215	12.43951	12.07348	7.08803	5.28287	3.73317	10.97813	10.81911	10.52266	3.29386	2.94754	2.67551	16.61606	14.81365	13.27620
62910	2.28394	2.44056	2.02938	12.83976	12.43849	12.07241	7.08572	5.28269	3.73209	10.97860	10.81838	10.52312	3.29309	2.94955	2.67542	16.60870	14.81271	13.27608
63080	2.28283	2.44127	2.02605	12.83871	12.43818	12.07333	7.08249	5.28328	3.73028	10.97993	10.81920	10.52334	3.29423	2.95075	2.67749	16.61197	14.81271	13.27841
63240	2.28593	2.44199	2.03027	12.84299	12.44196	12.07713	7.07542	5.28707	3.73502	10.98415	10.82478	10.52823	3.29650	2.95241	2.67964	16.61617	14.81916	13.28128
63410	2.28506	2.44177	2.02913	12.84341	12.44129	12.07507	7.08158	5.28293	3.73253	10.98071	10.82167	10.52386	3.29515	2.94993	2.67842	16.61361	14.81879	13.28309
63570	2.28347	2.44275	2.02638	12.84211	12.44034	12.07412	7.08312	5.28374	3.73338	10.97984	10.81980	10.52272	3.29086	2.94624	2.67660	16.60389	14.81269	13.27701
63730	2.28579	2.44255	2.02883	12.84113	12.44023	12.07619	7.07393	5.28230	3.73385	10.98303	10.82023	10.52623	3.29528	2.94847	2.67827	16.61678	14.81269	13.27808
63900	2.28253	2.44102	2.02710	12.83997	12.43770	12.07144	7.07778	5.28068	3.73284	10.98182	10.81855	10.52432	3.29524	2.95113	2.67924	16.60399	14.81553	13.28071
64060	2.28450	2.44237	2.02824	12.84176	12.43946	12.07442	7.08649	5.28274	3.73401	10.98146	10.82070	10.52508	3.29659	2.95119	2.67870	16.61463	14.81735	13.28082
64230	2.28593	2.44269	2.03013	12.84082	12.44101	12.07412	7.08517	5.28195	3.73368	10.98249	10.82007	10.52591	3.29438	2.94943	2.67897	16.61678	14.81367	13.27857	35.04	6.0	0.00	-2.04	0.01725	0.01195	0.01512	0.01828	0.01891	0.01478	0.00544	0.01507	0.01996	0.01858	0.01287	0.01639	0.01698	0.01755	0.01371	0.00575	0.01615	0.02150
64400	2.28377	2.44405	2.02965	12.83952	12.44126	12.07530	7.08137	5.28571	3.73720	10.98517	10.82286	10.52812	3.29516	2.95282	2.67598	16.61085	14.81719	13.28050
64560	2.28594	2.44403	2.03083	12.84084	12.44098	12.07311	7.08339	5.28259	3.73410	10.98394	10.82166	10.52558	3.29325	2.94805	2.67682	16.61658	14.81807	13.28051
64730	2.28440	2.43960	2.02762	12.83929	12.43974	12.07470	7.07540	5.28420	3.73143	10.98152	10.82007	10.52502	3.29494	2.94992	2.68275	16.62047	14.82117	13.28458
64890	2.28558	2.43980	2.02759	12.84409	12.44328	12.07637	7.07203	5.28436	3.73378	10.98289	10.82393	10.52746	3.29325	2.94978	2.67672	16.61596	14.81469	13.28139
65060	2.28615	2.44418	2.03022	12.84818	12.44719	12.07983	7.08310	5.28639	3.73839	10.98826	10.82788	10.53198	3.29707	2.95238	2.67966	16.62037	14.82032	13.28503
65220	2.28535	2.44434	2.02960	12.84577	12.44665	12.07996	7.07891	5.28584	3.73384	10.98661	10.82788	10.52948	3.29318	2.94858	2.67674	16.61269	14.82083	13.28322
65390	2.28133	2.43948	2.02491	12.84361	12.44383	12.07603	7.08190	5.28043	3.72914	10.98385	10.82541	10.52782	3.29541	2.95002	2.67903	16.61770	14.82006	13.28505
65550	2.28525	2.43999	2.02786	12.84807	12.44635	12.08076	7.07376	5.28248	3.73339	10.98553	10.82717	10.53043	3.29247	2.94806	2.67696	16.61699	14.81847	13.28310
65720	2.28568	2.44330	2.03088	12.84956	12.44850	12.08164	7.08252	5.28794	3.73711	10.98859	10.82943	10.53431	3.29473	2.95062	2.67775	16.62395	14.82148	13.28677
65880	2.28354	2.44088	2.02534	12.84859	12.44790	12.07894	7.09124	5.28230	3.73119	10.98589	10.82665	10.53007	3.29240	2.94990	2.67864	16.61157	14.82080	13.28602	35.04	6.1	0.00	-2.04	0.01725	0.01195	0.01512	0.01828	0.01891	0.01478	0.00544	0.01507	0.01996	0.01858	0.01287	0.01639	0.01698	0.01755	0.01371	0.00575	0.01615	0.02150
66050	2.28547	2.44248	2.03031	12.84975	12.44967	12.08113	7.08084	5.28303	3.73164	10.98693	10.82850	10.53100	3.29394	2.94888	2.67633	16.61085	14.82009	13.28376
66210	2.28455	2.44444	2.02849	12.84736	12.44787	12.07930	7.08170	5.28091	3.73266	10.98718	10.83056	10.53231	3.29345	2.94963	2.67512	16.61914	14.81992	13.28726
66380	2.28357	2.44293	2.02785	12.84914	12.44806	12.08049	7.07824	5.28087	3.72994	10.98565	10.82990	10.53127	3.28968	2.94703	2.67539	16.61556	14.81648	13.28402
66540	2.28335	2.44180	2.02921	12.84813	12.44884	12.07898	7.07780	5.28259	3.73172	10.98683	10.82915	10.53358	3.29119	2.94974	2.67980	16.61976	14.82126	13.28835
66710	2.28762	2.44489	2.02957	12.85282	12.45160	12.08307	7.07448	5.28506	3.73529	10.99107	10.83138	10.53591	3.29319	2.94938	2.67781	16.61689	14.82265	13.28866
66870	2.28520	2.44719	2.02981	12.85326	12.45139	12.08401	7.08315	5.28511	3.73197	10.99134	10.83284	10.53565	3.29667	2.95361	2.68093	16.62488	14.82774	13.29475
67040	2.28605	2.44659	2.03210	12.85638	12.45576	12.08904	7.07679	5.28547	3.73654	10.99380	10.83606	10.53882	3.29449	2.95105	2.67790	16.62631	14.82854	13.29185
67200	2.28525	2.44287	2.02732	12.85511	12.45383	12.08842	7.08941	5.28350	3.73316	10.99249	10.83291	10.53856	3.29180	2.94843	2.67615	16.62129	14.82627	13.29093
67370	2.28574	2.44454	2.03248	12.85729	12.45707	12.08965	7.07968	5.28866	3.73507	10.99601	10.84021	10.54156	3.29734	2.95035	2.67852	16.63287	14.83153	13.29443
67530	2.28585	2.44342	2.02792	12.85498	12.45618	12.08814	7.06671	5.28303	3.73059	10.99413	10.83447	10.53958	3.29542	2.95298	2.68071	16.62181	14.83184	13.29762	35.04	6.1	0.00	-2.04	0.01725	0.01195	0.01512	0.01828	0.01891	0.01478	0.00544	0.01507	0.01996	0.01858	0.01287	0.01639	0.01698	0.01755	0.01371	0.00575	0.01615	0.02150
67700	2.28751	2.44427	2.02960	12.85934	12.45640	12.08967	7.07995	5.28442	3.73347	10.99546	10.83664	10.54035	3.29484	2.94761	2.67844	16.62642	14.82609	13.29261
67860	2.28520	2.44539	2.03082	12.86047	12.45801	12.09307	7.08019	5.28654	3.73504	10.99813	10.84167	10.54221	3.29814	2.95124	2.67966	16.62632	14.83112	13.29587
68020	2.28525	2.44254	2.02932	12.85756	12.45639	12.09042	7.09180	5.28447	3.73039	10.99574	10.83853	10.54127	3.29716	2.95010	2.67935	16.62663	14.83016	13.29836
68190	2.28475	2.44274	2.02894	12.85907	12.45663	12.09128	7.07874	5.28544	3.73398	10.99727	10.83941	10.54232	3.29360	2.94602	2.67449	16.63390	14.83001	13.29562
68350	2.28025	2.43852	2.02574	12.85703	12.45498	12.08913	7.07893	5.27671	3.72689	10.99737	10.83825	10.54082	3.29346	2.95191	2.67858	16.63021	14.83534	13.30183
68520	2.28747	2.44272	2.03100	12.86354	12.46226	12.09645	7.07532	5.28048	3.73186	11.00128	10.84195	10.54685	3.29347	2.94802	2.67561	16.63544	14.83246	13.29934
68680	2.28391	2.44374	2.03150	12.86405	12.46418	12.09522	7.08163	5.28560	3.73787	11.00492	10.84660	10.54798	3.29500	2.94974	2.67802	16.63360	14.83668	13.30157
68850	2.28429	2.44488	2.02920	12.86137	12.46087	12.09320	7.07056	5.28070	3.73093	10.99990	10.84272	10.54383	3.29471	2.94943	2.67855	16.63790	14.83522	13.30091
69010	2.28384	2.44083	2.02899	12.86156	12.46170	12.09335	7.07956	5.28100	3.73105	11.00122	10.84333	10.54631	3.29398	2.94556	2.67317	16.62478	14.83221	13.29863
69180	2.28242	2.44166	2.03011	12.86314	12.46232	12.09814	7.07723	5.28427	3.73607	11.00370	10.84589	10.54699	3.29437	2.94786	2.67629	16.63401	14.83577	13.30129	35.04	6.2	0.00	-2.04	0.01725	0.01195	0.01512	0.01828	0.01891	0.01478	0.00543	0.01507	0.01996	0.01858	0.01287	0.01639	0.01698	0.01755	0.01371	0.00575	0.01615	0.02150
69340	2.28321	2.44107	2.02923	12.86189	12.46121	12.09407	7.06280	5.27941	3.73322	11.00034	10.83974	10.54535	3.29318	2.94790	2.67641	16.62448	14.83424	13.29901
69510	2.28254	2.44313	2.02705	12.86180	12.46144	12.09433	7.06905	5.27958	3.72971	11.00099	10.84318	10.54636	3.29512	2.95134	2.67753	16.63401	14.84002	13.30590
69670	2.28779	2.44500	2.03124	12.86839	12.46800	12.10150	7.07227	5.28300	3.73561	11.00812	10.84780	10.55162	3.29600	2.95063	2.67729	16.63555	14.83913	13.30559
69840	2.28316	2.44082	2.02828	12.86661	12.46721	12.09838	7.07309	5.28092	3.73157	11.00505	10.84526	10.54875	3.29312	2.94567	2.67286	16.63791	14.83717	13.30201
70000	2.28083	2.44278	2.02764	12.86588	12.46705	12.09926	7.07540	5.28061	3.73314	11.00806	10.84765	10.55278	3.29398	2.94839	2.67793	16.63903	14.84204	13.30635
70170	2.28448	2.44059	2.02638	12.86892	12.46631	12.09844	7.07449	5.27923	3.72799	11.00662	10.84552	10.55093	3.29428	2.94903	2.67845	16.63749	14.84076	13.30811
70330	2.28628	2.44414	2.02890	12.87038	12.47100	12.10325	7.07391	5.27926	3.73244	11.00918	10.85163	10.55471	3.29249	2.94858	2.67573	16.63657	14.84192	13.30609
70500	2.28497	2.44612	2.03071	12.87030	12.47088	12.10493	7.08026	5.28402	3.73403	11.01121	10.85187	10.55532	3.29490	2.94951	2.67584	16.64499	14.84671	13.30871
70660	2.28390	2.44320	2.02792	12.87032	12.46832	12.10316	7.07550	5.28139	3.72897	11.00754	10.84873	10.55300	3.29302	2.94747	2.67624	16.64519	14.84238	13.30633
70830	2.28299	2.44057	2.02603	12.86860	12.46568	12.10120	7.06864	5.27725	3.72949	11.00785	10.84769	10.55279	3.29341	2.94876	2.67531	16.63564	14.84166	13.30753	35.04	6.1	0.00	-2.04	0.01725	0.01195	0.01512	0.01828	0.01891	0.01478	0.00544	0.01507	0.01996	0.01858	0.01287	0.01639	0.01698	0.01755	0.01371	0.00575	0.01615	0.02150
70990	2.28306	2.43971	2.02865	12.86814	12.46803	12.10079	7.06518	5.28007	3.72983	11.00928	10.84928	10.55443	3.29105	2.94526	2.67295	16.63943	14.84083	13.30629
71160	2.28368	2.44347	2.02939	12.86986	12.46914	12.10460	7.07490	5.28221	3.73171	11.01075	10.85130	10.55590	3.29251	2.94991	2.67910	16.63574	14.84283	13.30670
71320	2.28278	2.44194	2.02767	12.86687	12.46692	12.09999	7.07331	5.27843	3.72927	11.00767	10.84672	10.55180	3.29549	2.94774	2.67658	16.63790	14.84280	13.30824
71490	2.28568	2.44447	2.02899	12.87076	12.47066	12.10437	7.06302	5.28324	3.73190	11.01107	10.85094	10.55564	3.29371	2.94800	2.67718	16.64067	14.84360	13.30876
71650	2.28548	2.44133	2.02753	12.87015	12.47001	12.10314	7.07240	5.27894	3.73221	11.01184	10.84977	10.55532	3.29345	2.94792	2.67548	16.63861	14.84286	13.30670
71820	2.28325	2.44387	2.02982	12.87116	12.47073	12.10669	7.07418	5.28656	3.73576	11.01386	10.85305	10.55763	3.29731	2.95242	2.67941	16.64190	14.84736	13.30985
71980	2.28268	2.44329	2.02924	12.87065	12.47013	12.10450	7.07052	5.28275	3.72983	11.01253	10.84962	10.55504	3.29256	2.94680	2.67553	16.63697	14.84351	13.30767
72150	2.28331	2.44109	2.02662	12.87235	12.47025	12.10590	7.07105	5.28094	3.73129	11.01310	10.85322	10.55604	3.29205	2.94913	2.67582	16.64508	14.84608	13.30943
72310	2.28494	2.44142	2.02811	12.87164	12.47055	12.10572	7.07211	5.28127	3.72886	11.01165	10.85283	10.55707	3.29419	2.94979	2.67758	16.64313	14.84904	13.31149
72480	2.28582	2.44228	2.02839	12.87380	12.47095	12.10721	7.07617	5.27773	3.73202	11.01335	10.85415	10.55732	3.29274	2.94717	2.67809	16.65103	14.84401	13.30749	35.04	5.9	0.00	-2.04	0.01725	0.01195	0.01512	0.01828	0.01891	0.01478	0.00543	0.01507	0.01996	0.01858	0.01287	0.01639	0.01698	0.01755	0.01371	0.00575	0.01615	0.02150
72640	2.28075	2.44040	2.02952	12.87102	12.47161	12.10902	7.07656	5.28495	3.73554	11.01393	10.85592	10.55859	3.29620	2.95086	2.67631	16.64610	14.84806	13.31222
72810	2.28657	2.44221	2.02755	12.87238	12.47074	12.10639	7.06520	5.27851	3.72825	11.01309	10.85477	10.55596	3.29038	2.94535	2.67544	16.64168	14.84726	13.31146
