WetView ver 7.1	07-20-2019	15:52:02
AC9 Absorption and Attenuation Meter
00000311		; Serial number
2	; structure version number
Reserved
0.000000	0.000000		; Depth calibration
19200			; Baud rate
0.100000			; Path length (meters)
23			; number of temperature calibration bins
				12.61517	13.44096	14.46844	15.49904	16.50682	17.50108	18.49752	19.51783	20.49177	21.49009	22.48286	23.50673	24.54012	25.54812	26.49986	27.49321	28.50960	29.48671	30.47471	31.49432	32.50437	33.48679	34.49133	; temperature bins
a650	Blue	18.61587		0.01156	0.01096	0.01010	0.00930	0.00851	0.00774	0.00661	0.00573	0.00499	0.00402	0.00285	0.00203	0.00096	0.00000	-0.00110	-0.00152	-0.00210	-0.00247	-0.00259	-0.00317	-0.00346	-0.00380	-0.00403		; offset and temperature correction info
a676	Green	18.78942		0.00964	0.00899	0.00863	0.00813	0.00730	0.00639	0.00545	0.00448	0.00385	0.00301	0.00233	0.00165	0.00046	0.00000	-0.00106	-0.00167	-0.00251	-0.00280	-0.00316	-0.00329	-0.00377	-0.00392	-0.00441		; offset and temperature correction info
a715	Brown	18.59217		0.01171	0.01109	0.01043	0.00975	0.00878	0.00789	0.00685	0.00572	0.00469	0.00356	0.00255	0.00160	0.00061	0.00000	-0.00063	-0.00113	-0.00152	-0.00183	-0.00226	-0.00293	-0.00364	-0.00404	-0.00473		; offset and temperature correction info
c510	Red	18.18396		-0.00549	-0.00480	-0.00383	-0.00272	-0.00202	-0.00118	-0.00044	-0.00038	-0.00015	-0.00021	0.00013	0.00007	-0.00007	0.00000	-0.00007	-0.00065	-0.00045	-0.00018	0.00007	0.00039	-0.00001	-0.00002	-0.00045		; offset and temperature correction info
c532	Magenta	18.26528		-0.00721	-0.00645	-0.00581	-0.00518	-0.00465	-0.00345	-0.00281	-0.00270	-0.00182	-0.00141	-0.00108	-0.00072	-0.00022	0.00000	0.00044	0.00030	0.00031	-0.00006	-0.00052	-0.00089	-0.00142	-0.00149	-0.00154		; offset and temperature correction info
c555	Black	18.37125		-0.00430	-0.00419	-0.00381	-0.00319	-0.00286	-0.00254	-0.00205	-0.00196	-0.00138	-0.00137	-0.00067	-0.00051	-0.00030	0.00000	0.00067	0.00087	0.00057	0.00027	-0.00015	-0.00089	-0.00127	-0.00137	-0.00150		; offset and temperature correction info
a412	LtBlue	15.33566		-0.06011	-0.05567	-0.05012	-0.04441	-0.03922	-0.03412	-0.02941	-0.02503	-0.02049	-0.01588	-0.01121	-0.00784	-0.00311	0.00000	0.00273	0.00611	0.00757	0.00871	0.01066	0.01299	0.01539	0.01781	0.02175		; offset and temperature correction info
a440	LtGreen	16.05925		-0.01380	-0.01214	-0.01039	-0.00858	-0.00690	-0.00532	-0.00426	-0.00322	-0.00230	-0.00158	-0.00055	0.00006	0.00001	0.00000	0.00017	0.00016	-0.00094	-0.00222	-0.00363	-0.00486	-0.00567	-0.00651	-0.00782		; offset and temperature correction info
a488	Yellow	16.82827		0.00255	0.00293	0.00331	0.00354	0.00373	0.00378	0.00363	0.00350	0.00291	0.00225	0.00215	0.00142	0.00099	0.00000	-0.00092	-0.00169	-0.00295	-0.00396	-0.00479	-0.00542	-0.00582	-0.00604	-0.00663		; offset and temperature correction info
c650	Blue	18.49287		-0.00570	-0.00516	-0.00456	-0.00403	-0.00346	-0.00232	-0.00132	-0.00122	-0.00073	-0.00066	-0.00035	-0.00016	0.00003	0.00000	0.00044	0.00078	0.00108	0.00057	0.00040	-0.00042	-0.00033	-0.00029	-0.00034		; offset and temperature correction info
c676	Green	18.50570		0.00299	0.00293	0.00287	0.00293	0.00278	0.00294	0.00317	0.00251	0.00243	0.00215	0.00139	0.00123	0.00068	0.00000	-0.00041	-0.00106	-0.00205	-0.00268	-0.00325	-0.00413	-0.00495	-0.00610	-0.00674		; offset and temperature correction info
c715	Brown	17.88888		0.00826	0.00812	0.00773	0.00790	0.00766	0.00758	0.00753	0.00650	0.00571	0.00461	0.00359	0.00222	0.00101	0.00000	-0.00146	-0.00284	-0.00385	-0.00448	-0.00463	-0.00513	-0.00623	-0.00715	-0.00838		; offset and temperature correction info
a510	Red	17.18050		0.00353	0.00364	0.00354	0.00361	0.00381	0.00381	0.00356	0.00332	0.00277	0.00229	0.00176	0.00116	0.00036	0.00000	-0.00014	-0.00069	-0.00088	-0.00147	-0.00150	-0.00129	-0.00120	-0.00134	-0.00091		; offset and temperature correction info
a532	Magenta	17.40228		0.00550	0.00548	0.00526	0.00479	0.00464	0.00422	0.00393	0.00328	0.00253	0.00212	0.00136	0.00085	0.00039	0.00000	-0.00059	-0.00146	-0.00188	-0.00262	-0.00330	-0.00393	-0.00491	-0.00540	-0.00605		; offset and temperature correction info
a555	Black	17.72308		0.00849	0.00832	0.00800	0.00760	0.00724	0.00655	0.00580	0.00495	0.00435	0.00347	0.00252	0.00153	0.00049	0.00000	-0.00050	-0.00155	-0.00214	-0.00306	-0.00350	-0.00411	-0.00470	-0.00539	-0.00570		; offset and temperature correction info
c412	LtBlue	16.72802		-0.05949	-0.05458	-0.04744	-0.04134	-0.03547	-0.03064	-0.02511	-0.02047	-0.01574	-0.01163	-0.00761	-0.00442	-0.00204	0.00000	0.00100	0.00051	-0.00043	-0.00239	-0.00475	-0.00629	-0.00827	-0.00955	-0.01337		; offset and temperature correction info
c440	LtGreen	17.42637		-0.02723	-0.02503	-0.02216	-0.01930	-0.01691	-0.01394	-0.01125	-0.00926	-0.00732	-0.00582	-0.00401	-0.00226	-0.00093	0.00000	0.00082	0.00123	0.00133	0.00097	0.00038	-0.00003	-0.00022	-0.00023	-0.00125		; offset and temperature correction info
c488	Yellow	18.03666		-0.00640	-0.00554	-0.00465	-0.00357	-0.00276	-0.00154	-0.00067	-0.00031	-0.00014	-0.00012	0.00046	0.00032	0.00020	0.00000	0.00001	-0.00024	-0.00060	-0.00084	-0.00126	-0.00180	-0.00276	-0.00304	-0.00427		; offset and temperature correction info
0.003500	0.004000	0.015000	0.020000	0.015000	0.020000	2500.000000	2000.000000	1000.000000	; maxANoise	maxCNoise	maxADifference	maxCDifference	minACounts	minCCounts	minRCounts	maxTempSdev	maxDepthSdev
0			; auxilliary capabilities
1			; acquisition binsize
0	3.14674	2.89990	2.47889	14.04235	12.63555	11.48738	24.47524	15.85633	9.35128	9.19393	8.92839	8.44591	7.61251	6.24522	5.21519	31.45681	22.61719	15.85937	32.97	6.3	0.00	-2.04	0.01731	0.01198	0.01515	0.01821	0.01887	0.01475	0.00544	0.01509	0.02004	0.01860	0.01288	0.01641	0.01703	0.01762	0.01376	0.00569	0.01603	0.02142
160	3.12518	2.87868	2.45803	14.04895	12.64447	11.49138	24.38369	15.83397	9.32966	9.19558	8.93309	8.45078	7.57830	6.21985	5.19151	31.49429	22.63571	15.86781
320	3.10602	2.86280	2.44574	14.05746	12.65143	11.49872	24.41031	15.80923	9.30435	9.20075	8.93748	8.45340	7.55985	6.20262	5.17755	31.49017	22.64291	15.87666
480	3.10315	2.86327	2.44434	14.07238	12.66562	11.51415	24.40133	15.80553	9.31001	9.21425	8.95219	8.46865	7.55958	6.19997	5.17328	31.52180	22.66159	15.89279
650	3.09128	2.85231	2.43231	14.08228	12.67311	11.51918	24.39020	15.77043	9.28786	9.21738	8.95566	8.46932	7.54267	6.18895	5.16490	31.50345	22.65858	15.89362
820	3.08448	2.84672	2.42770	14.08502	12.67620	11.52123	24.37827	15.77733	9.28869	9.21873	8.95783	8.46933	7.54354	6.18957	5.16835	31.49291	22.66410	15.89769
980	3.08455	2.84901	2.43030	14.08956	12.68030	11.52472	24.37881	15.78835	9.29101	9.22242	8.96071	8.47325	7.54552	6.19367	5.16647	31.49749	22.66586	15.90272
1150	3.08788	2.85061	2.43124	14.08884	12.68125	11.52749	24.37501	15.78712	9.29346	9.22354	8.96076	8.47471	7.54706	6.19357	5.16795	31.50207	22.67195	15.90167
1320	3.08940	2.85006	2.43045	14.08939	12.67986	11.52763	24.42909	15.78512	9.28993	9.22289	8.96091	8.47536	7.54777	6.19162	5.16525	31.52409	22.67535	15.90137
1480	3.08725	2.84808	2.42944	14.08730	12.67831	11.52476	24.40568	15.78839	9.28816	9.22500	8.96052	8.47525	7.54435	6.19293	5.16533	31.52317	22.67133	15.90016
1650	3.09971	2.86109	2.44255	14.07858	12.66944	11.51531	24.42692	15.79789	9.30727	9.21493	8.95032	8.46594	7.56176	6.21157	5.18302	31.50343	22.66427	15.89386	32.97	6.1	0.00	-2.04	0.01734	0.01199	0.01517	0.01819	0.01885	0.01474	0.00545	0.01513	0.02008	0.01859	0.01287	0.01640	0.01706	0.01765	0.01378	0.00569	0.01601	0.02140
1810	3.10160	2.86211	2.44307	14.07995	12.67133	11.51755	24.40005	15.81113	9.31183	9.21677	8.95290	8.46764	7.56752	6.21087	5.18350	31.53192	22.66163	15.88903
1980	3.10091	2.85989	2.44111	14.07725	12.66900	11.51617	24.42937	15.80537	9.30832	9.21474	8.95068	8.46654	7.56183	6.20855	5.18186	31.50802	22.65880	15.88669
2140	3.10138	2.86121	2.44354	14.07945	12.67171	11.51755	24.42230	15.80483	9.31312	9.21484	8.95315	8.46754	7.56685	6.20863	5.18471	31.50756	22.65843	15.89190
2310	3.10139	2.86041	2.44218	14.07873	12.67050	11.51774	24.38759	15.80821	9.30688	9.21244	8.95032	8.46441	7.56307	6.20729	5.18326	31.49930	22.65887	15.88777
2470	3.10073	2.86025	2.44183	14.07721	12.66893	11.51317	24.43345	15.80234	9.30898	9.21225	8.95057	8.46303	7.56259	6.20552	5.18355	31.51812	22.64951	15.88559
2640	3.10044	2.86297	2.44558	14.07625	12.67083	11.51735	24.43971	15.80806	9.31285	9.21699	8.95203	8.46608	7.56833	6.21328	5.18489	31.46313	22.65855	15.89015
2800	3.10039	2.85975	2.44202	14.07690	12.66700	11.51344	24.44570	15.81090	9.31411	9.21429	8.94826	8.46516	7.56574	6.20802	5.18303	31.49930	22.65868	15.88838
2960	3.10107	2.85972	2.43970	14.07519	12.66828	11.51456	24.40710	15.81025	9.31275	9.21428	8.95027	8.46464	7.56128	6.20589	5.17890	31.50664	22.65114	15.88568
3130	3.09776	2.85851	2.44053	14.07632	12.67012	11.51633	24.47269	15.80710	9.30888	9.21724	8.95166	8.46668	7.56470	6.20650	5.18164	31.49701	22.66176	15.88647
3290	3.10821	2.86664	2.44858	14.06860	12.66304	11.51081	24.42840	15.82158	9.32043	9.21262	8.94543	8.46224	7.57601	6.21519	5.19125	31.49578	22.64446	15.88103	33.02	6.0	0.00	-2.04	0.01736	0.01201	0.01519	0.01818	0.01884	0.01473	0.00546	0.01515	0.02010	0.01858	0.01287	0.01639	0.01709	0.01767	0.01380	0.00568	0.01600	0.02138
3450	3.10791	2.86870	2.45092	14.07114	12.66728	11.51560	24.45748	15.82089	9.32228	9.21910	8.94921	8.46778	7.57862	6.22156	5.19458	31.49991	22.65394	15.88615
3620	3.10960	2.86860	2.44831	14.07204	12.66541	11.51542	24.41023	15.81705	9.31978	9.21862	8.94939	8.46793	7.57513	6.21859	5.19277	31.47974	22.65243	15.88642
3780	3.10671	2.86901	2.44981	14.07158	12.66855	11.51621	24.44633	15.81839	9.32304	9.22154	8.95106	8.46989	7.57558	6.21802	5.19004	31.51094	22.65275	15.88521
3950	3.10692	2.86984	2.45124	14.07297	12.67065	11.52135	24.46510	15.82427	9.32716	9.22770	8.95642	8.47463	7.57834	6.22246	5.19548	31.52335	22.66255	15.89280
4110	3.11054	2.86919	2.45073	14.07864	12.67274	11.52147	24.46020	15.81655	9.32302	9.22671	8.95592	8.47665	7.57642	6.22351	5.19303	31.51323	22.66557	15.89687
4280	3.10970	2.86924	2.45166	14.08424	12.67721	11.52398	24.42433	15.82315	9.32242	9.23034	8.95974	8.47689	7.57725	6.21893	5.19350	31.52565	22.66450	15.89681
4440	3.10891	2.86709	2.45096	14.07984	12.67725	11.52568	24.41456	15.81271	9.32368	9.23012	8.96077	8.47767	7.58061	6.21832	5.19355	31.52059	22.66935	15.89606
4600	3.10921	2.86795	2.44782	14.08167	12.67649	11.52445	24.44035	15.82058	9.32224	9.22911	8.95877	8.47653	7.57988	6.21939	5.19454	31.54085	22.66727	15.89840
4770	3.10920	2.86898	2.45101	14.08517	12.67808	11.52686	24.40454	15.81463	9.32185	9.23186	8.95933	8.47866	7.57679	6.21948	5.19390	31.55284	22.66809	15.89908
4930	3.11392	2.87699	2.45868	14.08048	12.67622	11.52522	24.45261	15.82886	9.33356	9.23054	8.96062	8.47635	7.58597	6.22851	5.20053	31.51532	22.67221	15.89441	33.02	6.1	0.00	-2.04	0.01737	0.01201	0.01520	0.01817	0.01883	0.01473	0.00547	0.01517	0.02012	0.01857	0.01286	0.01639	0.01710	0.01769	0.01381	0.00568	0.01599	0.02137
5100	3.11545	2.87546	2.45798	14.08233	12.67543	11.52518	24.38356	15.83343	9.33090	9.23082	8.96002	8.47738	7.58707	6.23063	5.20285	31.51072	22.66547	15.89736
5260	3.11673	2.87717	2.45853	14.08440	12.67695	11.52557	24.45397	15.82583	9.33356	9.23322	8.96002	8.48014	7.58355	6.22823	5.20102	31.52499	22.67095	15.89766
5430	3.11610	2.87875	2.45832	14.08540	12.68017	11.53002	24.43931	15.83362	9.33519	9.23401	8.96447	8.48240	7.58747	6.22811	5.20510	31.51854	22.66994	15.89865
5590	3.11437	2.87702	2.45479	14.08451	12.67776	11.52690	24.46186	15.82644	9.33054	9.23296	8.96208	8.48007	7.58721	6.23039	5.20460	31.51808	22.67498	15.90328
5760	3.11813	2.87971	2.45932	14.08738	12.68417	11.53063	24.43578	15.82940	9.33535	9.23554	8.96401	8.48146	7.58976	6.23019	5.20090	31.52176	22.67271	15.90024
5920	3.11673	2.87567	2.45790	14.08821	12.68120	11.52986	24.42954	15.83286	9.33188	9.23432	8.96599	8.48407	7.58585	6.22703	5.19784	31.50750	22.66761	15.89874
6090	3.11623	2.87643	2.45832	14.09115	12.68381	11.53063	24.42873	15.83481	9.33442	9.23600	8.96576	8.48342	7.58579	6.22828	5.20410	31.51256	22.67416	15.90130
6250	3.11636	2.87624	2.45787	14.08976	12.68279	11.53220	24.47874	15.83243	9.33296	9.23451	8.96556	8.48272	7.58707	6.22974	5.20084	31.52729	22.67366	15.90509
6420	3.11854	2.87793	2.45887	14.09241	12.68714	11.53416	24.40517	15.82702	9.33456	9.23725	8.96969	8.48594	7.59020	6.23276	5.20229	31.54712	22.68342	15.91072
6580	3.12376	2.88294	2.46490	14.09369	12.68624	11.53286	24.44894	15.84443	9.34311	9.23828	8.96977	8.48675	7.59490	6.23647	5.20771	31.53709	22.67635	15.90350	33.02	6.1	0.00	-2.04	0.01738	0.01202	0.01521	0.01817	0.01883	0.01472	0.00547	0.01518	0.02014	0.01857	0.01286	0.01638	0.01711	0.01770	0.01382	0.00568	0.01599	0.02137
6750	3.11995	2.88114	2.45969	14.09048	12.68207	11.53051	24.35842	15.83453	9.33630	9.23446	8.96622	8.48373	7.59019	6.23546	5.20610	31.50623	22.67200	15.90136
6910	3.12063	2.87755	2.45834	14.08887	12.68240	11.53002	24.38374	15.83844	9.33616	9.23235	8.96437	8.48268	7.59244	6.23622	5.20357	31.53478	22.67358	15.90244
7080	3.12072	2.88339	2.46098	14.09107	12.68387	11.53229	24.42075	15.84278	9.34055	9.23365	8.96569	8.48199	7.59499	6.23715	5.20403	31.50945	22.67295	15.89834
7240	3.11900	2.87921	2.46172	14.08748	12.68149	11.53104	24.44297	15.84574	9.34226	9.23126	8.96483	8.47948	7.59698	6.23721	5.20898	31.50256	22.66615	15.89685
7400	3.11949	2.88159	2.46012	14.08486	12.67554	11.52586	24.45981	15.83929	9.34047	9.22501	8.95983	8.47509	7.59670	6.23903	5.20821	31.50072	22.66180	15.89577
7570	3.12008	2.88298	2.46069	14.08378	12.67550	11.52377	24.45845	15.83971	9.34342	9.22501	8.95761	8.47428	7.59414	6.23695	5.20618	31.54216	22.66621	15.89269
7730	3.12249	2.88315	2.46322	14.08356	12.67514	11.52335	24.49411	15.83211	9.33907	9.22577	8.95912	8.47401	7.59495	6.23399	5.20918	31.51267	22.66873	15.89354
7900	3.11836	2.87875	2.46069	14.08062	12.67420	11.52239	24.43403	15.84086	9.34047	9.22165	8.95687	8.47214	7.59290	6.23813	5.20916	31.51175	22.66237	15.89336
8060	3.12049	2.88043	2.46228	14.08286	12.67411	11.52033	24.40155	15.84316	9.34400	9.22235	8.95705	8.47265	7.59374	6.23438	5.20754	31.52418	22.66061	15.89066
8230	3.12526	2.88523	2.46584	14.07903	12.66990	11.51759	24.44896	15.84309	9.34978	9.21839	8.95278	8.46884	7.60025	6.24273	5.21401	31.50022	22.64968	15.88483	33.02	6.2	0.00	-2.04	0.01739	0.01202	0.01521	0.01816	0.01882	0.01472	0.00547	0.01518	0.02015	0.01856	0.01286	0.01638	0.01712	0.01771	0.01383	0.00568	0.01598	0.02136
8390	3.12234	2.88594	2.46393	14.07137	12.66301	11.51283	24.40511	15.84389	9.34520	9.21356	8.94636	8.46374	7.59948	6.24459	5.21664	31.50804	22.65409	15.88616
8560	3.12596	2.88863	2.46753	14.07346	12.66265	11.51432	24.51920	15.84643	9.34754	9.21422	8.94857	8.46413	7.60179	6.24348	5.21227	31.47589	22.64861	15.88004
8720	3.12559	2.88755	2.46620	14.06928	12.66055	11.51069	24.48538	15.84981	9.34780	9.21323	8.94697	8.46431	7.60053	6.24257	5.21327	31.47039	22.64723	15.88197
8890	3.12723	2.88875	2.46784	14.06889	12.66241	11.51247	24.53287	15.85665	9.35354	9.21655	8.94889	8.46608	7.60395	6.24452	5.21529	31.51724	22.65283	15.88362
9050	3.12582	2.88604	2.46411	14.06678	12.65849	11.50953	24.48865	15.85423	9.34686	9.21340	8.94542	8.46278	7.60063	6.24186	5.21487	31.51172	22.65371	15.88389
9220	3.12466	2.88779	2.46833	14.07028	12.66033	11.51183	24.46417	15.85899	9.35106	9.21559	8.94634	8.46417	7.60383	6.24553	5.21898	31.50666	22.65006	15.88319
9390	3.12854	2.88619	2.46684	14.06758	12.66071	11.51287	24.46009	15.85396	9.35099	9.21536	8.94691	8.46411	7.60441	6.24517	5.21892	31.50896	22.65547	15.88654
9550	3.12890	2.89066	2.46920	14.07093	12.66290	11.51453	24.53670	15.85838	9.35308	9.21714	8.94781	8.46653	7.59949	6.24276	5.21206	31.48277	22.65364	15.88323
9720	3.12604	2.88422	2.46639	14.06921	12.66210	11.51126	24.53150	15.84727	9.34817	9.21437	8.94503	8.46315	7.59725	6.24055	5.21455	31.46535	22.65195	15.88108
9880	3.12867	2.88597	2.46739	14.06693	12.65835	11.51033	24.47072	15.85361	9.35338	9.21422	8.94416	8.46266	7.60134	6.24624	5.21714	31.50537	22.64703	15.88075	32.97	6.1	0.00	-2.04	0.01739	0.01203	0.01521	0.01816	0.01882	0.01472	0.00548	0.01519	0.02016	0.01856	0.01286	0.01638	0.01713	0.01771	0.01383	0.00567	0.01598	0.02136
10050	3.12492	2.88686	2.46803	14.06495	12.65835	11.50884	24.49303	15.85150	9.35065	9.21254	8.94331	8.46118	7.60299	6.24583	5.21800	31.47368	22.65137	15.88309
10210	3.12992	2.88711	2.46915	14.06817	12.66045	11.51129	24.49358	15.84685	9.35289	9.21347	8.94375	8.46239	7.59872	6.24274	5.21462	31.48928	22.64634	15.87765
10380	3.12879	2.88892	2.47019	14.07098	12.66262	11.50996	24.47969	15.85687	9.35570	9.21474	8.94486	8.46309	7.60405	6.24439	5.21535	31.49755	22.65320	15.88071
10540	3.12891	2.88996	2.46788	14.06628	12.65926	11.50862	24.51812	15.85234	9.35129	9.21222	8.94352	8.46194	7.60155	6.24179	5.21604	31.50261	22.65106	15.88215
10700	3.12763	2.88556	2.46915	14.06728	12.65987	11.51057	24.49140	15.85937	9.35076	9.21295	8.94518	8.46290	7.60155	6.24580	5.21410	31.49341	22.65439	15.88250
10870	3.12918	2.89019	2.46751	14.06800	12.66177	11.51139	24.47643	15.85680	9.35037	9.21285	8.94415	8.46245	7.60042	6.24409	5.21460	31.52332	22.64955	15.88122
11030	3.12893	2.88626	2.47002	14.07039	12.66197	11.51178	24.54601	15.85618	9.35268	9.21297	8.94694	8.46363	7.60584	6.24639	5.21382	31.48148	22.65603	15.88206
11200	3.12772	2.88644	2.46631	14.06597	12.66108	11.50978	24.48432	15.85549	9.35026	9.21083	8.94429	8.46041	7.60465	6.24309	5.21663	31.48469	22.65427	15.88201
11360	3.12850	2.88994	2.46889	14.06982	12.66222	11.51196	24.45470	15.84908	9.35099	9.21404	8.94748	8.46404	7.60388	6.24529	5.21577	31.49801	22.64917	15.88039
11530	3.13170	2.89218	2.47317	14.07078	12.66327	11.51380	24.40838	15.84902	9.35706	9.21647	8.94778	8.46581	7.60763	6.24760	5.21857	31.49796	22.65368	15.88447	32.97	6.2	0.00	-2.04	0.01739	0.01203	0.01522	0.01816	0.01882	0.01472	0.00548	0.01519	0.02016	0.01856	0.01285	0.01638	0.01713	0.01772	0.01383	0.00567	0.01598	0.02135
11690	3.12941	2.88836	2.46922	14.07159	12.66075	11.51139	24.44977	15.85251	9.34991	9.21310	8.94445	8.46355	7.60412	6.24114	5.21641	31.49336	22.65249	15.88058
11860	3.12807	2.88642	2.46774	14.06730	12.65970	11.51003	24.42838	15.84184	9.35233	9.21201	8.94474	8.46236	7.60419	6.24668	5.22096	31.49106	22.65954	15.88624
12020	3.13237	2.89185	2.47128	14.07359	12.66319	11.51580	24.42757	15.85098	9.35589	9.21493	8.94725	8.46540	7.60849	6.24733	5.21601	31.50716	22.65759	15.88350
12190	3.13015	2.88925	2.47297	14.07248	12.66231	11.51341	24.49951	15.85827	9.35502	9.21413	8.94768	8.46406	7.61267	6.25066	5.21904	31.49520	22.65419	15.88420
12350	3.13231	2.88872	2.47114	14.06976	12.66041	11.50986	24.51751	15.85993	9.35250	9.20940	8.94246	8.46086	7.60419	6.24631	5.21839	31.47775	22.65406	15.87977
12510	3.12882	2.88962	2.47263	14.06652	12.66003	11.51258	24.49270	15.86677	9.35632	9.21012	8.94550	8.46348	7.60921	6.24688	5.21717	31.46354	22.65098	15.88096
12680	3.12940	2.88612	2.47003	14.06885	12.65893	11.50846	24.46741	15.85320	9.35332	9.20772	8.94167	8.45919	7.60507	6.24672	5.21876	31.48142	22.64639	15.88022
12840	3.12933	2.88852	2.47045	14.06830	12.65741	11.50638	24.41621	15.85343	9.35127	9.20800	8.94311	8.45983	7.60428	6.24566	5.21622	31.50072	22.64626	15.87835
13000	3.13033	2.88673	2.46688	14.06639	12.65583	11.50593	24.44083	15.84913	9.35005	9.20653	8.94132	8.45936	7.60596	6.24790	5.21932	31.46170	22.65280	15.88404
13170	3.13129	2.89255	2.47253	14.06887	12.66067	11.50810	24.48611	15.85712	9.35202	9.20937	8.94400	8.46226	7.60790	6.24852	5.21825	31.48189	22.64361	15.87963	32.97	6.0	0.00	-2.04	0.01740	0.01203	0.01522	0.01815	0.01882	0.01471	0.00548	0.01520	0.02016	0.01856	0.01285	0.01638	0.01713	0.01772	0.01384	0.00567	0.01597	0.02135
13330	3.12953	2.89077	2.47148	14.06892	12.65975	11.50922	24.45244	15.85013	9.35675	9.20827	8.94408	8.46148	7.60686	6.24555	5.21851	31.51269	22.64920	15.87900
13500	3.12704	2.88855	2.46854	14.06481	12.65635	11.50496	24.42671	15.84480	9.35233	9.20671	8.94053	8.45775	7.60616	6.24578	5.22102	31.49613	22.65436	15.88139
13660	3.13292	2.89170	2.47003	14.06944	12.65899	11.50806	24.41725	15.85562	9.35281	9.20734	8.94251	8.46040	7.60405	6.24495	5.21696	31.49337	22.64656	15.87853
13830	3.13163	2.89234	2.47331	14.06938	12.66128	11.50965	24.44322	15.85819	9.35742	9.21045	8.94682	8.46256	7.60568	6.24745	5.21777	31.51039	22.65065	15.88125
13990	3.13021	2.88776	2.46949	14.06768	12.65857	11.50651	24.41401	15.85746	9.35488	9.20743	8.94199	8.45985	7.60700	6.24757	5.21877	31.52006	22.65260	15.88269
14160	3.13183	2.88862	2.47316	14.06935	12.66000	11.50838	24.40240	15.85658	9.35258	9.20904	8.94411	8.46209	7.60827	6.24621	5.21454	31.47180	22.64883	15.87916
14320	3.12957	2.88949	2.46992	14.07094	12.66145	11.51134	24.44403	15.84725	9.35523	9.21134	8.94841	8.46372	7.60678	6.24641	5.21594	31.51454	22.65254	15.88251
14480	3.13071	2.88976	2.46849	14.06879	12.65982	11.50798	24.46112	15.84691	9.35067	9.20987	8.94262	8.46127	7.60380	6.24769	5.21838	31.47363	22.64908	15.87875
14650	3.12798	2.88847	2.47045	14.06842	12.65854	11.50616	24.49047	15.85355	9.35152	9.20700	8.94130	8.45936	7.60421	6.24461	5.22045	31.47271	22.64700	15.87655
14810	3.12862	2.88860	2.46961	14.06397	12.65618	11.50345	24.43218	15.84402	9.35325	9.20530	8.94020	8.45953	7.60487	6.24818	5.22050	31.49420	22.64616	15.87692	32.97	6.1	0.00	-2.04	0.01740	0.01203	0.01522	0.01815	0.01882	0.01471	0.00548	0.01520	0.02017	0.01856	0.01285	0.01638	0.01713	0.01772	0.01384	0.00567	0.01597	0.02135
14980	3.13160	2.89088	2.47381	14.06743	12.65788	11.50827	24.45873	15.85599	9.35603	9.20871	8.94396	8.46185	7.60726	6.24596	5.22293	31.47721	22.64868	15.87892
15140	3.13097	2.89278	2.47288	14.06910	12.66043	11.50924	24.51095	15.86026	9.35697	9.21012	8.94476	8.46270	7.60427	6.24656	5.21786	31.49696	22.64654	15.87797
15310	3.13122	2.88853	2.47311	14.06664	12.65949	11.50814	24.41623	15.85123	9.35490	9.20988	8.94589	8.46374	7.61038	6.24823	5.21985	31.49190	22.64528	15.87919
15470	3.13237	2.89001	2.47101	14.06988	12.65781	11.50729	24.47747	15.84958	9.35168	9.20829	8.94526	8.46290	7.60783	6.24852	5.21835	31.50110	22.64773	15.87847
15640	3.13010	2.88817	2.46851	14.06999	12.65933	11.50674	24.44707	15.85784	9.36083	9.20978	8.94599	8.46107	7.60485	6.24647	5.22011	31.48777	22.64396	15.87519
15800	3.12909	2.88899	2.47092	14.06512	12.65801	11.50759	24.46470	15.85453	9.35406	9.20881	8.94528	8.46211	7.60459	6.24854	5.21855	31.44605	22.64339	15.87525
15970	3.13079	2.88837	2.46952	14.06460	12.65589	11.50219	24.45331	15.85008	9.35186	9.20709	8.94222	8.45847	7.60585	6.25050	5.22316	31.47721	22.65289	15.87802
16130	3.13097	2.89117	2.47147	14.06686	12.65875	11.50629	24.41596	15.85154	9.35494	9.20841	8.94430	8.46216	7.60497	6.25008	5.21890	31.51491	22.64408	15.87492
16300	3.13221	2.89214	2.47539	14.06904	12.66074	11.51010	24.43191	15.86214	9.36390	9.21105	8.94722	8.46423	7.60967	6.24991	5.22206	31.48134	22.64943	15.87802
16460	3.13208	2.89431	2.47230	14.06945	12.65939	11.50625	24.50479	15.86658	9.35875	9.20857	8.94509	8.46114	7.61182	6.25113	5.22136	31.47139	22.64717	15.87713	32.97	6.1	0.00	-2.04	0.01740	0.01203	0.01522	0.01815	0.01881	0.01471	0.00548	0.01520	0.02017	0.01856	0.01285	0.01638	0.01714	0.01772	0.01384	0.00567	0.01597	0.02135
16620	3.13182	2.89168	2.47229	14.06729	12.65935	11.50597	24.47948	15.86951	9.35680	9.20818	8.94370	8.46163	7.61173	6.25103	5.22606	31.48699	22.64849	15.87744
16790	3.13269	2.89171	2.47103	14.06810	12.65836	11.50466	24.49117	15.86562	9.35950	9.20865	8.94540	8.46113	7.61079	6.24956	5.22232	31.47506	22.63982	15.87688
16950	3.13105	2.89168	2.47446	14.06675	12.65924	11.50558	24.50315	15.86405	9.35742	9.20788	8.94383	8.46041	7.60848	6.25073	5.21968	31.50815	22.63975	15.87443
17120	3.13206	2.89212	2.47341	14.06475	12.65800	11.50173	24.49226	15.86209	9.35360	9.20534	8.94096	8.45840	7.60647	6.25075	5.22361	31.46680	22.64158	15.87522
17290	3.13533	2.89390	2.47290	14.06662	12.65778	11.50476	24.49144	15.87147	9.36096	9.20675	8.94194	8.45983	7.60774	6.25004	5.22186	31.50768	22.64258	15.87463
17450	3.13419	2.89534	2.47658	14.07093	12.66082	11.50837	24.45532	15.87024	9.36092	9.21083	8.94821	8.46355	7.60836	6.25095	5.22458	31.48378	22.65007	15.87978
17610	3.13438	2.89179	2.46987	14.06784	12.65881	11.50374	24.39827	15.85679	9.35426	9.20738	8.94281	8.45896	7.60313	6.24788	5.21723	31.49113	22.63956	15.87254
17780	3.12988	2.88795	2.46916	14.06285	12.65397	11.50087	24.41878	15.85560	9.35490	9.20318	8.93995	8.45722	7.60768	6.24498	5.21664	31.45443	22.64283	15.87355
17940	3.12974	2.88786	2.46874	14.06322	12.65498	11.50185	24.44285	15.84681	9.35038	9.20559	8.94036	8.45731	7.60457	6.24665	5.21924	31.46634	22.64799	15.87648
18110	3.13069	2.88928	2.47113	14.06607	12.65827	11.50230	24.41528	15.84576	9.35093	9.20630	8.94059	8.45851	7.60152	6.24455	5.21644	31.48494	22.63958	15.87333	32.97	6.0	0.00	-2.04	0.01740	0.01203	0.01522	0.01815	0.01881	0.01471	0.00548	0.01520	0.02017	0.01856	0.01285	0.01638	0.01714	0.01772	0.01384	0.00567	0.01597	0.02135
18270	3.12736	2.88527	2.46884	14.06570	12.65762	11.50446	24.34451	15.85401	9.35395	9.20853	8.94257	8.46128	7.60426	6.24339	5.21580	31.51070	22.63989	15.87427
18440	3.12884	2.88874	2.46725	14.06503	12.65448	11.50163	24.37593	15.84821	9.35318	9.20541	8.93966	8.45910	7.60935	6.25003	5.22105	31.47393	22.64964	15.87601
18600	3.13357	2.89062	2.47265	14.06862	12.65878	11.50611	24.41069	15.84771	9.35748	9.20936	8.94408	8.46138	7.60605	6.24987	5.22208	31.49597	22.64505	15.87511
18770	3.12987	2.88966	2.47061	14.06522	12.65439	11.50370	24.47459	15.86100	9.35416	9.20687	8.94071	8.46029	7.60785	6.24921	5.21924	31.48678	22.64266	15.87421
18930	3.13239	2.88875	2.47083	14.06366	12.65565	11.50258	24.52142	15.85593	9.35323	9.20441	8.93909	8.45886	7.61019	6.25210	5.22446	31.52406	22.64549	15.87740
19100	3.13375	2.89332	2.47414	14.06679	12.65912	11.50601	24.56052	15.87010	9.36256	9.20863	8.94259	8.46168	7.61198	6.25504	5.22236	31.48954	22.64203	15.87648
19260	3.13274	2.89281	2.47415	14.06472	12.65728	11.50434	24.47948	15.86845	9.36306	9.20598	8.94337	8.46060	7.61041	6.25180	5.22356	31.51208	22.63951	15.87414
19430	3.13306	2.89307	2.47426	14.06509	12.65782	11.50521	24.48845	15.86795	9.35795	9.20880	8.94200	8.46040	7.60685	6.25186	5.22054	31.46705	22.64272	15.87479
19590	3.13113	2.88657	2.46908	14.06514	12.65592	11.50283	24.42068	15.84384	9.34889	9.20667	8.94130	8.45933	7.60443	6.24594	5.21585	31.51024	22.63933	15.87612
19760	3.13034	2.88616	2.46977	14.06626	12.65744	11.50497	24.32276	15.84304	9.35386	9.20826	8.94303	8.46078	7.60071	6.24624	5.21297	31.45236	22.64197	15.87443	32.97	6.0	0.00	-2.04	0.01740	0.01203	0.01522	0.01815	0.01881	0.01471	0.00548	0.01520	0.02017	0.01856	0.01285	0.01638	0.01714	0.01772	0.01384	0.00567	0.01597	0.02135
19920	3.13062	2.88560	2.47068	14.06558	12.66059	11.50660	24.36432	15.84787	9.35513	9.21055	8.94554	8.46372	7.60127	6.24699	5.21559	31.48767	22.64140	15.87722
20090	3.13024	2.88372	2.46873	14.06684	12.65707	11.50434	24.35653	15.84615	9.35357	9.20808	8.94162	8.46186	7.60720	6.24877	5.21829	31.47482	22.64599	15.87898
20250	3.13212	2.88772	2.47057	14.06902	12.65938	11.50597	24.36620	15.84991	9.35372	9.21067	8.94406	8.46301	7.60237	6.24570	5.21477	31.47298	22.64379	15.87693
20420	3.13025	2.88765	2.46977	14.06710	12.65963	11.50560	24.37157	15.84833	9.35588	9.21143	8.94458	8.46336	7.60486	6.24656	5.21581	31.47069	22.64398	15.87898
20580	3.13047	2.88785	2.47008	14.06708	12.66108	11.50672	24.42954	15.85255	9.35642	9.21077	8.94462	8.46312	7.60967	6.24846	5.21905	31.47069	22.64015	15.87794
20750	3.13341	2.89125	2.47480	14.06845	12.66131	11.50854	24.48595	15.86384	9.36172	9.21328	8.94738	8.46606	7.61163	6.25165	5.22136	31.49181	22.65172	15.87945
20910	3.13448	2.89199	2.47048	14.07067	12.66103	11.50799	24.54842	15.86488	9.35918	9.21129	8.94447	8.46413	7.60861	6.25289	5.22456	31.48124	22.64398	15.88206
21080	3.13508	2.89290	2.47542	14.07239	12.66421	11.51005	24.54021	15.86869	9.36150	9.21134	8.94750	8.46525	7.61231	6.25210	5.22206	31.49871	22.64870	15.87772
21240	3.13471	2.89377	2.47551	14.06961	12.66245	11.51160	24.54787	15.88330	9.36552	9.21515	8.94875	8.46682	7.61730	6.25740	5.23126	31.51528	22.64971	15.88118
21410	3.13692	2.89273	2.47575	14.07233	12.66238	11.50957	24.54352	15.86831	9.36189	9.21169	8.94513	8.46536	7.61313	6.25630	5.22413	31.48125	22.64553	15.87946	33.02	6.1	0.00	-2.04	0.01740	0.01203	0.01522	0.01815	0.01881	0.01471	0.00548	0.01520	0.02017	0.01856	0.01285	0.01638	0.01714	0.01773	0.01384	0.00567	0.01597	0.02135
21570	3.13614	2.89427	2.47592	14.07056	12.66155	11.50936	24.54899	15.87593	9.36546	9.21269	8.94635	8.46529	7.61215	6.25314	5.22448	31.48079	22.64880	15.88011
21740	3.13372	2.89329	2.47652	14.07233	12.66464	11.50906	24.56954	15.86835	9.36258	9.21276	8.94737	8.46649	7.61530	6.25295	5.22212	31.51713	22.65170	15.87964
21900	3.13392	2.89684	2.47754	14.07241	12.66408	11.50985	24.56405	15.86862	9.36449	9.21366	8.94897	8.46594	7.61296	6.25457	5.22406	31.49273	22.65378	15.88029
22070	3.13252	2.89130	2.47140	14.07222	12.66323	11.50771	24.57859	15.86512	9.35808	9.21139	8.94582	8.46448	7.61186	6.25418	5.22471	31.47803	22.65271	15.88171
22230	3.13376	2.89124	2.47443	14.07476	12.66678	11.51199	24.55994	15.87228	9.36210	9.21517	8.94997	8.46758	7.60899	6.24879	5.22086	31.50009	22.64931	15.88308
22400	3.13300	2.89330	2.47478	14.07522	12.66795	11.51477	24.48244	15.86144	9.35937	9.21705	8.95281	8.47009	7.60791	6.25255	5.21944	31.47436	22.65227	15.88346
22560	3.13277	2.88802	2.47059	14.07559	12.66560	11.51114	24.49359	15.85468	9.35273	9.21268	8.94899	8.46748	7.60943	6.25126	5.21858	31.52450	22.65459	15.88470
22720	3.13190	2.89031	2.47223	14.07779	12.66766	11.51261	24.38344	15.85472	9.35239	9.21436	8.95076	8.46795	7.60570	6.24584	5.21463	31.49641	22.64811	15.88189
22890	3.12968	2.88768	2.47041	14.07396	12.66678	11.51091	24.42146	15.84827	9.35134	9.21412	8.94960	8.46877	7.60321	6.24829	5.21524	31.48033	22.65321	15.88040
23050	3.12864	2.88288	2.46677	14.07271	12.66569	11.50761	24.34076	15.84435	9.34670	9.21171	8.94646	8.46516	7.60112	6.24636	5.21890	31.47853	22.65086	15.88385	32.97	6.1	0.00	-2.04	0.01740	0.01203	0.01522	0.01815	0.01881	0.01471	0.00548	0.01520	0.02017	0.01856	0.01285	0.01638	0.01714	0.01772	0.01384	0.00567	0.01597	0.02135
23220	3.12958	2.88639	2.46883	14.07488	12.66810	11.51240	24.39855	15.85989	9.35118	9.21558	8.95013	8.46889	7.60864	6.24863	5.21779	31.48771	22.65325	15.88511
23380	3.13150	2.88939	2.47273	14.08000	12.66964	11.51564	24.41636	15.85290	9.35460	9.21757	8.95229	8.47092	7.60894	6.24928	5.21851	31.45011	22.65640	15.88590
23550	3.12929	2.88894	2.47174	14.07612	12.66986	11.51520	24.43636	15.86581	9.35704	9.21754	8.95336	8.47071	7.60743	6.24970	5.21988	31.48266	22.66358	15.88630
23710	3.13070	2.88692	2.46828	14.07798	12.66786	11.51289	24.43690	15.84742	9.35227	9.21475	8.94892	8.46861	7.60553	6.24960	5.21630	31.49507	22.65010	15.88081
23870	3.12851	2.88664	2.47105	14.07512	12.66938	11.51509	24.37701	15.85532	9.34981	9.21652	8.95247	8.46974	7.60659	6.24841	5.22094	31.49139	22.65420	15.88365
24040	3.13121	2.88843	2.47140	14.07575	12.66843	11.51222	24.47106	15.86204	9.35222	9.21447	8.95045	8.46743	7.60551	6.24916	5.21780	31.48725	22.65143	15.88083
24200	3.13049	2.89170	2.47350	14.07212	12.66767	11.51389	24.58164	15.87319	9.36002	9.21569	8.95108	8.46963	7.61307	6.25238	5.22547	31.48496	22.65042	15.88358
24360	3.13407	2.89083	2.47425	14.07558	12.66569	11.50916	24.61657	15.87557	9.36058	9.21319	8.94913	8.46625	7.61453	6.25229	5.22435	31.50243	22.65533	15.88250
24530	3.13520	2.89035	2.47455	14.07630	12.66591	11.50856	24.62318	15.86908	9.35725	9.21265	8.95106	8.46800	7.60753	6.25024	5.21869	31.50289	22.65136	15.88383
24690	3.13171	2.89079	2.47206	14.07403	12.66619	11.51150	24.49585	15.86305	9.35694	9.21358	8.94896	8.46853	7.60932	6.25144	5.22170	31.47832	22.65218	15.88615	32.97	6.1	0.00	-2.04	0.01740	0.01203	0.01522	0.01815	0.01881	0.01471	0.00548	0.01520	0.02017	0.01856	0.01285	0.01638	0.01714	0.01772	0.01384	0.00567	0.01597	0.02135
24860	3.13172	2.88715	2.47101	14.07571	12.66979	11.51277	24.45402	15.86359	9.35415	9.21553	8.95360	8.46858	7.60438	6.24823	5.22086	31.47694	22.65212	15.88241
25020	3.13161	2.88925	2.47262	14.07787	12.66934	11.51428	24.46813	15.85260	9.35282	9.21589	8.95317	8.47036	7.60613	6.24541	5.21738	31.43252	22.65646	15.88322
25190	3.13028	2.88560	2.46919	14.07449	12.66611	11.51117	24.47437	15.85514	9.35078	9.21308	8.94951	8.46787	7.60585	6.25244	5.21962	31.50084	22.65715	15.88439
25350	3.12935	2.89081	2.47237	14.07728	12.66865	11.51275	24.45565	15.84973	9.35419	9.21457	8.95151	8.46959	7.60444	6.24657	5.21738	31.52294	22.65099	15.88288
25520	3.13202	2.89191	2.47483	14.07826	12.67096	11.51493	24.47600	15.86347	9.35631	9.21715	8.95247	8.47068	7.60805	6.24806	5.22081	31.50728	22.65237	15.88547
25680	3.13059	2.88839	2.47112	14.07467	12.66646	11.51177	24.47953	15.86858	9.35441	9.21428	8.94878	8.46739	7.61064	6.25048	5.22588	31.49716	22.65810	15.88797
25850	3.13490	2.89058	2.47488	14.07963	12.66924	11.51475	24.44806	15.85095	9.35541	9.21623	8.95096	8.46908	7.60749	6.24841	5.21992	31.48842	22.65262	15.88664
26010	3.13217	2.88716	2.46953	14.07634	12.66680	11.51062	24.48905	15.85241	9.35389	9.21395	8.95155	8.46959	7.60267	6.24513	5.21515	31.52202	22.64878	15.88433
26170	3.12666	2.88296	2.46982	14.07606	12.66711	11.51332	24.41884	15.84129	9.35170	9.21443	8.95449	8.46958	7.60028	6.24429	5.21412	31.49900	22.64985	15.88430
26340	3.12703	2.88507	2.46590	14.07141	12.66404	11.50983	24.35191	15.83247	9.34685	9.21319	8.95111	8.46769	7.60006	6.24393	5.21173	31.52259	22.66184	15.88447	32.97	6.1	0.00	-2.04	0.01740	0.01203	0.01522	0.01815	0.01881	0.01471	0.00548	0.01520	0.02017	0.01856	0.01285	0.01638	0.01714	0.01773	0.01384	0.00567	0.01597	0.02135
26510	3.12906	2.88500	2.46811	14.07528	12.66679	11.50926	24.30826	15.83278	9.34888	9.21315	8.95040	8.46796	7.60152	6.24508	5.21544	31.52397	22.65661	15.88519
26670	3.12996	2.88879	2.46892	14.07772	12.66786	11.51250	24.36184	15.84658	9.34812	9.21645	8.95141	8.47046	7.60245	6.24443	5.21554	31.50232	22.65290	15.88336
26830	3.12802	2.88493	2.47016	14.07605	12.66797	11.51314	24.45630	15.85490	9.35504	9.22018	8.95434	8.47112	7.60477	6.24865	5.21783	31.52121	22.65523	15.88827
27000	3.13181	2.88592	2.47013	14.07681	12.66786	11.51207	24.46660	15.85456	9.34987	9.21628	8.95131	8.46928	7.60828	6.24975	5.22094	31.48715	22.65787	15.88708
27160	3.13344	2.88918	2.47372	14.07849	12.67103	11.51497	24.44302	15.86623	9.35403	9.21762	8.95320	8.47105	7.60728	6.24916	5.21930	31.48531	22.65497	15.88438
27330	3.13168	2.89280	2.47244	14.07801	12.66933	11.51422	24.51258	15.86673	9.35574	9.21877	8.95386	8.47237	7.60958	6.24733	5.21986	31.50877	22.65271	15.88667
27490	3.13087	2.88826	2.47145	14.07846	12.66876	11.51254	24.47910	15.86235	9.35341	9.21545	8.95197	8.47061	7.60555	6.24750	5.22167	31.45412	22.65044	15.88240
27650	3.13192	2.89136	2.47359	14.07814	12.67135	11.51579	24.55138	15.86078	9.35791	9.21901	8.95685	8.47389	7.61099	6.24731	5.22211	31.50048	22.65819	15.88789
27820	3.12975	2.88798	2.47219	14.07944	12.67003	11.51432	24.54809	15.86412	9.35287	9.21689	8.95594	8.47175	7.60644	6.24682	5.22138	31.49542	22.65164	15.88528
27980	3.13397	2.89284	2.47448	14.08134	12.67399	11.51907	24.53502	15.87077	9.36029	9.22133	8.95796	8.47539	7.61223	6.25146	5.22237	31.49454	22.65950	15.88868	32.97	6.2	0.00	-2.04	0.01740	0.01203	0.01522	0.01815	0.01881	0.01471	0.00548	0.01520	0.02017	0.01856	0.01285	0.01638	0.01714	0.01773	0.01384	0.00567	0.01597	0.02135
28140	3.13178	2.89081	2.47199	14.08023	12.67005	11.51497	24.55088	15.87077	9.35512	9.21779	8.95477	8.47142	7.61097	6.25001	5.22378	31.48030	22.65402	15.88650
28310	3.13217	2.89169	2.47250	14.07722	12.66914	11.51462	24.50364	15.86908	9.35450	9.21724	8.95523	8.47245	7.60870	6.24736	5.21924	31.50696	22.65560	15.88384
28470	3.12967	2.88851	2.47098	14.07652	12.66681	11.51428	24.51618	15.86101	9.35457	9.21503	8.95225	8.46982	7.60792	6.25118	5.22429	31.49960	22.65805	15.88839
28640	3.13213	2.89143	2.47392	14.07947	12.67285	11.51840	24.45825	15.86416	9.35909	9.22068	8.95614	8.47410	7.60746	6.24796	5.21845	31.49270	22.65591	15.88760
28800	3.13262	2.88796	2.47514	14.08106	12.67517	11.52024	24.49629	15.85986	9.35747	9.22433	8.96014	8.47820	7.60622	6.24607	5.21838	31.49132	22.66076	15.88947
28970	3.12958	2.88870	2.47009	14.08116	12.67271	11.51781	24.44605	15.85644	9.35032	9.21908	8.95632	8.47538	7.60724	6.24992	5.22169	31.48030	22.66120	15.89100
29130	3.13062	2.88753	2.47181	14.08151	12.67425	11.51768	24.49901	15.85449	9.35341	9.22112	8.95675	8.47616	7.60184	6.24127	5.21474	31.46149	22.65276	15.88684
29290	3.13050	2.88652	2.47169	14.08062	12.67508	11.51799	24.41360	15.85042	9.35515	9.22185	8.95951	8.47715	7.60589	6.24576	5.21861	31.48489	22.65327	15.88857
29460	3.12652	2.88525	2.46820	14.07925	12.67231	11.51740	24.47861	15.85445	9.34730	9.21930	8.95568	8.47487	7.60235	6.24557	5.21367	31.48167	22.65352	15.88681
29620	3.12749	2.88515	2.46776	14.08008	12.67297	11.51658	24.36286	15.84777	9.34911	9.22055	8.95778	8.47670	7.60061	6.24046	5.21371	31.47655	22.65439	15.88789	32.97	6.2	0.00	-2.04	0.01740	0.01203	0.01522	0.01815	0.01881	0.01471	0.00548	0.01520	0.02017	0.01856	0.01285	0.01638	0.01714	0.01773	0.01384	0.00567	0.01597	0.02135
29790	3.12511	2.88750	2.46995	14.08217	12.67714	11.52400	24.49291	15.85291	9.35576	9.22700	8.96346	8.48206	7.60736	6.24854	5.21837	31.47196	22.66384	15.89371
29950	3.12940	2.88920	2.46918	14.08561	12.67683	11.52138	24.47904	15.85303	9.35035	9.22394	8.96055	8.48043	7.60510	6.24657	5.21958	31.50688	22.66724	15.89427
30120	3.13014	2.88832	2.46903	14.08895	12.68086	11.52381	24.44973	15.85748	9.35315	9.22528	8.96271	8.48118	7.60442	6.24630	5.21508	31.51517	22.65999	15.89213
30280	3.12761	2.88735	2.47209	14.08217	12.67671	11.52169	24.57682	15.86339	9.35277	9.22438	8.96101	8.47981	7.60697	6.24529	5.21899	31.49630	22.65672	15.89224
30440	3.12925	2.88968	2.46891	14.08197	12.67491	11.51901	24.54695	15.85878	9.35414	9.22293	8.95842	8.47678	7.60461	6.24580	5.21619	31.47425	22.65533	15.88524
30610	3.13082	2.89092	2.47383	14.08509	12.67825	11.52308	24.56913	15.86370	9.35646	9.22710	8.96265	8.48218	7.60968	6.25000	5.22201	31.50642	22.66882	15.89294
30770	3.13048	2.89078	2.47096	14.08269	12.67482	11.52118	24.56502	15.86282	9.35227	9.22472	8.96130	8.47795	7.60594	6.24358	5.21907	31.51794	22.66327	15.89411
30930	3.12920	2.88923	2.47010	14.08380	12.67555	11.52032	24.49400	15.85610	9.34976	9.22333	8.96017	8.47925	7.60678	6.24543	5.21684	31.52808	22.65899	15.89091
31100	3.12681	2.88535	2.47055	14.08147	12.67245	11.51852	24.50272	15.85817	9.35025	9.22224	8.95905	8.47651	7.60565	6.25052	5.22238	31.52762	22.66837	15.89659
31260	3.13006	2.89052	2.47012	14.08697	12.67624	11.52264	24.46107	15.85875	9.35673	9.22576	8.96127	8.48094	7.60111	6.24545	5.21682	31.50688	22.66510	15.89058	32.97	6.0	0.00	-2.04	0.01740	0.01203	0.01522	0.01815	0.01881	0.01471	0.00548	0.01520	0.02017	0.01856	0.01285	0.01638	0.01714	0.01773	0.01384	0.00567	0.01597	0.02135
31430	3.12879	2.88923	2.47125	14.08835	12.67921	11.52436	24.44481	15.85814	9.35789	9.22794	8.96461	8.48247	7.60256	6.24677	5.21562	31.50965	22.66705	15.89224
31590	3.12856	2.88691	2.46960	14.08429	12.67629	11.52201	24.47763	15.86190	9.35033	9.22372	8.96038	8.47963	7.60390	6.24726	5.21883	31.49079	22.66440	15.89386
31760	3.12668	2.88683	2.46751	14.08447	12.67705	11.52205	24.51411	15.85626	9.35207	9.22630	8.96275	8.48032	7.60039	6.24096	5.21400	31.49998	22.66535	15.89179
31920	3.12569	2.88505	2.46675	14.08360	12.67321	11.52138	24.48171	15.85303	9.34863	9.22271	8.95890	8.47841	7.60532	6.24616	5.21870	31.50688	22.66667	15.89729
32090	3.12969	2.88616	2.47126	14.08841	12.67963	11.52548	24.46595	15.85776	9.35301	9.22921	8.96413	8.48310	7.60144	6.24579	5.21279	31.49814	22.66396	15.89553
32250	3.12667	2.88616	2.47035	14.08769	12.67854	11.52583	24.42614	15.84881	9.35002	9.22841	8.96488	8.48296	7.59903	6.24391	5.21305	31.47058	22.66220	15.89508
32420	3.12721	2.88551	2.46853	14.08789	12.68001	11.52383	24.40130	15.84762	9.34869	9.22917	8.96493	8.48338	7.59704	6.23838	5.21545	31.48941	22.66113	15.89468
32580	3.12450	2.88072	2.46466	14.08506	12.67575	11.52256	24.38648	15.83524	9.34362	9.22496	8.96257	8.48043	7.59867	6.24051	5.21356	31.50642	22.66484	15.89339
32750	3.12738	2.88515	2.46665	14.08702	12.67869	11.52640	24.44102	15.84352	9.34767	9.22869	8.96516	8.48122	7.60007	6.24504	5.21540	31.51932	22.66970	15.90155
32910	3.13131	2.89003	2.47106	14.09384	12.68318	11.52994	24.40054	15.85656	9.35321	9.23224	8.96816	8.48717	7.60475	6.24717	5.21682	31.50349	22.66717	15.89904	32.97	6.1	0.00	-2.04	0.01740	0.01203	0.01522	0.01815	0.01881	0.01471	0.00548	0.01520	0.02017	0.01856	0.01285	0.01638	0.01714	0.01773	0.01384	0.00567	0.01597	0.02135
33080	3.12866	2.88579	2.46716	14.08992	12.67944	11.52510	24.44594	15.84911	9.35293	9.22979	8.96700	8.48384	7.60047	6.24181	5.21082	31.48418	22.66956	15.89645
33240	3.12496	2.88594	2.46911	14.08693	12.68229	11.52941	24.42349	15.85218	9.35171	9.23359	8.96945	8.48735	7.60307	6.24419	5.21472	31.51316	22.67127	15.90129
33410	3.12592	2.88411	2.46516	14.09094	12.68187	11.52835	24.38088	15.85007	9.34960	9.23112	8.96750	8.48450	7.60247	6.24652	5.21695	31.54176	22.67253	15.90168
33570	3.12596	2.88604	2.46743	14.09434	12.68341	11.53047	24.45136	15.86174	9.35219	9.23265	8.96832	8.48698	7.60165	6.24304	5.21342	31.51731	22.67429	15.90093
33730	3.12725	2.88518	2.46836	14.09273	12.68434	11.53092	24.43295	15.84965	9.34959	9.23386	8.97127	8.48846	7.59793	6.24445	5.21345	31.52422	22.67240	15.90152
33900	3.12513	2.88422	2.46675	14.09129	12.68176	11.52951	24.45651	15.85314	9.34844	9.23129	8.96750	8.48579	7.60532	6.24454	5.21745	31.53160	22.67341	15.90463
34060	3.12999	2.88759	2.47038	14.09552	12.68493	11.53268	24.48910	15.85533	9.35031	9.23524	8.96986	8.48913	7.60406	6.24202	5.21721	31.51639	22.67404	15.90105
34230	3.13114	2.88932	2.47080	14.09725	12.69021	11.53370	24.52617	15.86958	9.35647	9.23706	8.97382	8.49199	7.60530	6.24864	5.22066	31.51869	22.68319	15.90810
34390	3.12988	2.88742	2.47036	14.09722	12.68631	11.53162	24.53819	15.85836	9.35423	9.23401	8.97161	8.48970	7.60691	6.24733	5.22133	31.52238	22.67820	15.90813
34560	3.13203	2.89331	2.47284	14.09876	12.68897	11.53552	24.57192	15.86508	9.35702	9.23722	8.97325	8.49147	7.60636	6.24607	5.21713	31.50923	22.67317	15.90589	32.97	6.0	0.00	-2.04	0.01740	0.01203	0.01522	0.01815	0.01881	0.01471	0.00548	0.01520	0.02017	0.01856	0.01285	0.01638	0.01714	0.01773	0.01384	0.00567	0.01597	0.02135
34720	3.13030	2.89050	2.47022	14.09752	12.68917	11.53568	24.44952	15.86435	9.35400	9.23651	8.97334	8.49276	7.60667	6.24552	5.21562	31.50784	22.67039	15.90825
34880	3.12980	2.88810	2.46645	14.09822	12.68507	11.53065	24.47774	15.86055	9.34980	9.23420	8.97038	8.48936	7.60260	6.24484	5.21611	31.53366	22.67783	15.90571
35050	3.12538	2.88481	2.46725	14.09612	12.68647	11.53014	24.46118	15.85207	9.34687	9.23356	8.96995	8.48857	7.60191	6.24044	5.21231	31.49634	22.66888	15.90325
35210	3.12448	2.88532	2.46736	14.09278	12.68442	11.53002	24.44058	15.84562	9.34866	9.23406	8.96896	8.48870	7.60476	6.24527	5.21891	31.51706	22.67550	15.90613
35380	3.12687	2.88794	2.46775	14.09632	12.68739	11.53299	24.42625	15.85805	9.35128	9.23612	8.97291	8.49107	7.60255	6.24465	5.21865	31.48945	22.67474	15.90474
35540	3.12752	2.88876	2.46993	14.09662	12.68882	11.53374	24.51258	15.85978	9.35726	9.23712	8.97334	8.49141	7.60464	6.24630	5.21631	31.47475	22.67619	15.90408
35710	3.12616	2.88824	2.46820	14.09501	12.68754	11.53411	24.49378	15.85909	9.35293	9.23740	8.97381	8.49168	7.60281	6.24218	5.21362	31.49542	22.67279	15.90665
35870	3.12757	2.88482	2.46756	14.09689	12.68745	11.53360	24.46091	15.86117	9.35236	9.23604	8.97281	8.49140	7.60412	6.24653	5.21580	31.50692	22.67228	15.90819
36040	3.12897	2.88537	2.46779	14.09959	12.69185	11.53564	24.46769	15.86312	9.35365	9.23766	8.97541	8.49178	7.60171	6.24311	5.21557	31.53412	22.67601	15.90573
36200	3.12517	2.88651	2.46779	14.09927	12.68854	11.53734	24.45337	15.85468	9.35052	9.23842	8.97607	8.49415	7.60033	6.24046	5.21382	31.52536	22.68283	15.90944	32.97	6.2	0.00	-2.04	0.01740	0.01203	0.01522	0.01815	0.01881	0.01471	0.00548	0.01520	0.02017	0.01856	0.01285	0.01638	0.01714	0.01773	0.01384	0.00567	0.01597	0.02135
36370	3.12635	2.88690	2.46701	14.09769	12.68669	11.53309	24.37830	15.83995	9.34745	9.23649	8.97360	8.49191	7.60033	6.24320	5.21575	31.52074	22.68245	15.91170
36530	3.12956	2.88687	2.46862	14.10116	12.69331	11.53634	24.40821	15.84486	9.35115	9.23790	8.97562	8.49274	7.59922	6.24129	5.21207	31.50784	22.67709	15.90759
36700	3.12793	2.88648	2.47025	14.10250	12.69373	11.53873	24.42846	15.85457	9.35637	9.24132	8.97775	8.49577	7.60365	6.24488	5.21713	31.50831	22.68662	15.91104
36860	3.12783	2.88944	2.46907	14.10291	12.69112	11.53618	24.44362	15.86474	9.35059	9.23758	8.97703	8.49358	7.60293	6.24302	5.21458	31.54844	22.68334	15.90994
37020	3.12755	2.88782	2.46937	14.10051	12.69050	11.53646	24.45662	15.85768	9.35101	9.23691	8.97543	8.49255	7.60357	6.24479	5.21659	31.51660	22.68517	15.90874
37190	3.13206	2.88931	2.46985	14.10189	12.69237	11.53644	24.47263	15.85702	9.35305	9.23588	8.97348	8.49218	7.60254	6.24510	5.21790	31.55353	22.67778	15.90908
37350	3.13060	2.88837	2.47026	14.10119	12.69044	11.53568	24.51454	15.86732	9.35422	9.23889	8.97450	8.49293	7.60310	6.24739	5.21644	31.51567	22.68113	15.90982
37520	3.12869	2.88627	2.46861	14.09894	12.68792	11.53419	24.50555	15.85426	9.34941	9.23576	8.97285	8.49112	7.60236	6.24483	5.21644	31.49266	22.68258	15.91097
37690	3.13064	2.88823	2.46985	14.10199	12.69012	11.53607	24.46612	15.84850	9.35461	9.23766	8.97550	8.49419	7.59942	6.24478	5.21872	31.51521	22.68012	15.90917
37850	3.13030	2.88802	2.47141	14.10295	12.69304	11.54015	24.51612	15.85710	9.35563	9.24012	8.97744	8.49446	7.60910	6.25059	5.21972	31.55311	22.68195	15.91063	32.97	6.1	0.00	-2.04	0.01740	0.01203	0.01522	0.01815	0.01881	0.01471	0.00548	0.01520	0.02017	0.01855	0.01285	0.01638	0.01714	0.01773	0.01384	0.00567	0.01597	0.02135
38010	3.12997	2.89093	2.47155	14.10134	12.68940	11.53548	24.47339	15.86240	9.35075	9.23607	8.97449	8.49196	7.60367	6.24188	5.21496	31.51940	22.68094	15.90487
38180	3.12994	2.88799	2.46844	14.09584	12.68662	11.53364	24.44600	15.85422	9.35090	9.23425	8.97156	8.49117	7.60282	6.24606	5.21488	31.51571	22.67986	15.90672
38340	3.12733	2.88583	2.47019	14.09946	12.68814	11.53201	24.48209	15.85476	9.35197	9.23500	8.97271	8.49064	7.60311	6.24480	5.21999	31.52171	22.68081	15.90708
38510	3.13118	2.88940	2.46871	14.10062	12.68845	11.53372	24.49950	15.85307	9.34765	9.23536	8.97313	8.49131	7.60410	6.24085	5.21210	31.54571	22.67948	15.90638
38670	3.12441	2.88488	2.46563	14.09926	12.68873	11.53427	24.42193	15.85464	9.35194	9.23691	8.97721	8.49544	7.60487	6.24508	5.21340	31.51249	22.68403	15.90731
38840	3.12687	2.88443	2.46595	14.10038	12.68818	11.53481	24.37018	15.84570	9.34562	9.23447	8.97138	8.49081	7.59948	6.24141	5.21366	31.55265	22.68605	15.91006
39000	3.12801	2.88552	2.46680	14.10247	12.69330	11.53683	24.42436	15.84267	9.35205	9.23923	8.97603	8.49367	7.60151	6.24258	5.21197	31.51618	22.67942	15.90859
39170	3.12607	2.88331	2.46777	14.10177	12.69170	11.53650	24.39872	15.85084	9.34812	9.23785	8.97580	8.49419	7.59910	6.24006	5.21191	31.51157	22.67917	15.90769
39330	3.12426	2.88370	2.46358	14.09983	12.68764	11.53415	24.44438	15.84007	9.34443	9.23480	8.97222	8.49104	7.59791	6.23579	5.21042	31.50927	22.67387	15.90499
39490	3.12411	2.88243	2.46585	14.09873	12.69161	11.53519	24.42890	15.84673	9.34771	9.23720	8.97391	8.49265	7.60194	6.24158	5.21295	31.50278	22.67664	15.90663	32.97	6.1	0.00	-2.04	0.01740	0.01204	0.01522	0.01815	0.01881	0.01471	0.00548	0.01520	0.02017	0.01855	0.01285	0.01638	0.01714	0.01773	0.01384	0.00567	0.01597	0.02135
39660	3.12415	2.88421	2.46306	14.09777	12.68736	11.53102	24.41998	15.83339	9.34267	9.23658	8.97142	8.49098	7.59606	6.23126	5.20566	31.50370	22.66895	15.90396
39820	3.12253	2.88480	2.46622	14.10085	12.69030	11.53699	24.38950	15.84527	9.34701	9.23933	8.97730	8.49476	7.59959	6.23934	5.21103	31.51061	22.67791	15.90730
39980	3.12363	2.88344	2.46454	14.10069	12.68796	11.53427	24.37900	15.85283	9.34357	9.23807	8.97398	8.49209	7.60081	6.24117	5.21087	31.50002	22.67772	15.90604
40150	3.12406	2.88502	2.46566	14.10113	12.69056	11.53376	24.44622	15.84597	9.34818	9.23699	8.97403	8.49330	7.59890	6.23807	5.21354	31.50002	22.67273	15.90505
40310	3.12181	2.88359	2.46428	14.09764	12.68550	11.53070	24.41647	15.85038	9.34764	9.23373	8.97192	8.49006	7.60513	6.24377	5.21814	31.52858	22.68024	15.90825
40480	3.12613	2.88827	2.46814	14.10325	12.69074	11.53415	24.46248	15.86666	9.35417	9.23853	8.97466	8.49283	7.60151	6.24443	5.21526	31.51245	22.67147	15.90557
40640	3.12824	2.89174	2.46978	14.10266	12.69302	11.53605	24.52644	15.86116	9.35631	9.23984	8.97902	8.49569	7.60917	6.24841	5.21768	31.56047	22.68296	15.90920
40810	3.12907	2.88968	2.46761	14.10345	12.69036	11.53474	24.54639	15.85848	9.35341	9.23863	8.97564	8.49347	7.60576	6.24586	5.21777	31.54059	22.68321	15.90979
40970	3.12839	2.88814	2.46798	14.10233	12.69090	11.53362	24.52835	15.85644	9.34863	9.23807	8.97469	8.49397	7.60174	6.24126	5.21573	31.53043	22.67072	15.90568
41140	3.12775	2.88378	2.46872	14.10119	12.69124	11.53532	24.51435	15.85473	9.35179	9.24063	8.97570	8.49583	7.60152	6.24140	5.21166	31.53426	22.67661	15.90611	33.02	6.2	0.00	-2.04	0.01740	0.01203	0.01522	0.01815	0.01881	0.01471	0.00548	0.01520	0.02017	0.01855	0.01285	0.01638	0.01714	0.01773	0.01384	0.00567	0.01597	0.02135
41300	3.12353	2.88600	2.46395	14.10031	12.68870	11.53270	24.45806	15.84280	9.34859	9.23649	8.97324	8.49271	7.60076	6.24066	5.21227	31.55274	22.67460	15.90595
41460	3.12455	2.88303	2.46652	14.09889	12.68999	11.53454	24.44749	15.84652	9.34670	9.23705	8.97345	8.49338	7.59585	6.23939	5.21086	31.52503	22.67832	15.90318
41630	3.12101	2.88445	2.46574	14.09837	12.69153	11.53634	24.51162	15.85642	9.35041	9.23981	8.97635	8.49549	7.60269	6.24410	5.21378	31.54072	22.67882	15.90929
41790	3.12545	2.88609	2.46486	14.10184	12.69053	11.53319	24.53919	15.84947	9.34856	9.23804	8.97343	8.49310	7.60107	6.24238	5.21243	31.52180	22.68318	15.90947
41950	3.12748	2.88916	2.46900	14.10263	12.69202	11.53452	24.53045	15.84579	9.34919	9.24094	8.97576	8.49557	7.60064	6.23801	5.21111	31.52641	22.67863	15.90631
42120	3.12359	2.88373	2.46502	14.10058	12.69046	11.53542	24.47706	15.85108	9.34620	9.23858	8.97597	8.49503	7.59610	6.23426	5.20915	31.52964	22.68109	15.90453
42280	3.12127	2.88317	2.46592	14.10097	12.69075	11.53428	24.42206	15.84299	9.34598	9.23676	8.97336	8.49219	7.59661	6.23786	5.21218	31.50752	22.67466	15.90311
42450	3.12694	2.88764	2.46831	14.10243	12.69473	11.53757	24.51517	15.86659	9.35283	9.23962	8.97876	8.49526	7.60428	6.24317	5.21525	31.50384	22.67680	15.90756
42610	3.12649	2.88599	2.46484	14.10038	12.69026	11.53483	24.54357	15.85465	9.34559	9.23712	8.97613	8.49135	7.59888	6.24161	5.21011	31.47672	22.67491	15.90713
42780	3.12420	2.88160	2.46604	14.10204	12.69123	11.53464	24.47144	15.84789	9.34545	9.23712	8.97537	8.49387	7.59450	6.23463	5.20777	31.52156	22.67726	15.90443	32.97	6.3	0.00	-2.04	0.01740	0.01203	0.01522	0.01815	0.01881	0.01471	0.00548	0.01520	0.02017	0.01856	0.01285	0.01638	0.01714	0.01773	0.01384	0.00567	0.01597	0.02135
42940	3.12078	2.88094	2.46261	14.10033	12.68773	11.53165	24.45083	15.83953	9.34049	9.23481	8.97323	8.49154	7.59400	6.24060	5.21361	31.51050	22.68092	15.91011
43100	3.12279	2.88235	2.46492	14.10422	12.69511	11.53877	24.45516	15.84851	9.34857	9.24085	8.97781	8.49718	7.59602	6.23861	5.21046	31.52663	22.67745	15.90829
43270	3.12521	2.88441	2.46854	14.10424	12.69549	11.54000	24.47904	15.85852	9.34732	9.24352	8.98040	8.49807	7.60055	6.24330	5.21282	31.50130	22.68092	15.90957
43430	3.12614	2.88386	2.46332	14.10464	12.69321	11.53668	24.50625	15.86067	9.34781	9.23963	8.97827	8.49580	7.60127	6.24274	5.21496	31.54279	22.68231	15.91095
43600	3.12483	2.88614	2.46643	14.10357	12.69306	11.53722	24.52289	15.85634	9.34804	9.24132	8.97920	8.49674	7.60084	6.24100	5.21645	31.51096	22.68584	15.90955
43760	3.12398	2.88324	2.46693	14.10188	12.69295	11.53660	24.53681	15.85169	9.34445	9.23754	8.97571	8.49501	7.60454	6.24540	5.22161	31.53956	22.68654	15.91260
43920	3.12937	2.89056	2.47102	14.10555	12.69633	11.53930	24.63513	15.86106	9.35476	9.24252	8.97934	8.49777	7.60143	6.24198	5.21560	31.53956	22.67795	15.90851
44090	3.12555	2.88835	2.46836	14.10038	12.69362	11.53578	24.54502	15.86990	9.35233	9.24196	8.98015	8.49802	7.60412	6.24573	5.21754	31.50682	22.67789	15.90998
44250	3.12714	2.88935	2.46822	14.10092	12.69146	11.53439	24.58805	15.85814	9.34897	9.23780	8.97781	8.49462	7.60436	6.24481	5.21531	31.50682	22.67726	15.90729
44420	3.12662	2.88643	2.46913	14.10229	12.69291	11.53591	24.58449	15.85899	9.35317	9.23965	8.97898	8.49575	7.60527	6.24841	5.22036	31.51538	22.67976	15.90785	32.97	6.0	0.00	-2.04	0.01740	0.01203	0.01522	0.01815	0.01881	0.01471	0.00548	0.01520	0.02017	0.01855	0.01285	0.01638	0.01714	0.01773	0.01384	0.00567	0.01597	0.02135
44590	3.12821	2.88832	2.47006	14.10331	12.69374	11.53705	24.56090	15.86144	9.34851	9.24008	8.97777	8.49707	7.60596	6.24524	5.22117	31.50295	22.67868	15.91169
44750	3.12890	2.88745	2.46950	14.10628	12.69703	11.53879	24.48611	15.85127	9.34868	9.24205	8.98098	8.49856	7.60078	6.24239	5.21250	31.49559	22.67812	15.90905
44920	3.12619	2.88494	2.46599	14.10406	12.69238	11.53587	24.45245	15.84184	9.34516	9.23970	8.97648	8.49565	7.59655	6.23937	5.21130	31.49054	22.68083	15.90584
45080	3.12550	2.88613	2.46805	14.10109	12.69298	11.53703	24.56912	15.86605	9.35158	9.24016	8.97811	8.49781	7.60417	6.24254	5.21798	31.51769	22.67932	15.90830
45250	3.12587	2.88713	2.46809	14.10067	12.69066	11.53531	24.51525	15.85407	9.34596	9.23876	8.97607	8.49448	7.60546	6.24839	5.21750	31.50433	22.68051	15.91340
45410	3.12901	2.88850	2.46825	14.10408	12.69461	11.53605	24.48339	15.85772	9.34833	9.24109	8.97814	8.49623	7.60035	6.24205	5.21350	31.55555	22.67900	15.90675
45580	3.12675	2.88996	2.47060	14.10543	12.69665	11.54035	24.55131	15.86563	9.35511	9.24324	8.98109	8.49971	7.60519	6.24403	5.21844	31.51262	22.67932	15.91058
45740	3.12828	2.88701	2.46502	14.10183	12.69182	11.53599	24.41539	15.84609	9.34446	9.23751	8.97575	8.49448	7.59804	6.23988	5.21310	31.54168	22.67704	15.90738
45900	3.12286	2.88262	2.46566	14.09914	12.68937	11.53409	24.47796	15.84065	9.34329	9.23584	8.97609	8.49266	7.59854	6.24114	5.21268	31.51631	22.68096	15.90855
46070	3.12437	2.88269	2.46552	14.09857	12.69164	11.53495	24.49482	15.84605	9.34989	9.23680	8.97571	8.49184	7.59945	6.24024	5.21158	31.53557	22.67587	15.90572	32.97	6.1	0.00	-2.04	0.01740	0.01203	0.01522	0.01815	0.01881	0.01471	0.00548	0.01520	0.02017	0.01855	0.01285	0.01638	0.01714	0.01773	0.01384	0.00567	0.01597	0.02135
46230	3.12494	2.88515	2.46698	14.09846	12.69058	11.53487	24.46791	15.85660	9.34902	9.23771	8.97555	8.49369	7.60203	6.24292	5.21380	31.54019	22.67821	15.90443
46400	3.12490	2.88366	2.46586	14.09542	12.68837	11.53394	24.57296	15.86056	9.34722	9.23532	8.97377	8.49139	7.60512	6.24334	5.21730	31.49917	22.67783	15.90495
46560	3.12438	2.88462	2.46705	14.09606	12.68982	11.53497	24.51143	15.85898	9.34971	9.23659	8.97439	8.49290	7.60239	6.24505	5.21447	31.50009	22.67360	15.90389
46730	3.12745	2.88624	2.46871	14.10014	12.69403	11.53773	24.56693	15.86010	9.35160	9.24063	8.97920	8.49739	7.60539	6.24375	5.21752	31.51344	22.67802	15.90676
46890	3.12502	2.88535	2.46476	14.09996	12.68841	11.53347	24.49019	15.85330	9.34764	9.23592	8.97512	8.49329	7.59805	6.23810	5.21174	31.47849	22.67114	15.90353
47060	3.12236	2.87826	2.46624	14.09623	12.68824	11.53315	24.44459	15.84824	9.34342	9.23613	8.97505	8.49271	7.59673	6.23895	5.21095	31.47665	22.67644	15.90633
47220	3.12213	2.88169	2.46477	14.10223	12.69336	11.53675	24.43512	15.84563	9.34508	9.23830	8.97811	8.49479	7.59882	6.24058	5.21430	31.51989	22.67827	15.90545
47390	3.12298	2.88164	2.46392	14.09918	12.69136	11.53673	24.40243	15.84183	9.34385	9.23751	8.97734	8.49379	7.59917	6.23991	5.21237	31.46656	22.67436	15.90344
47550	3.12244	2.88024	2.46214	14.09804	12.68717	11.53237	24.38465	15.83540	9.33715	9.23561	8.97282	8.49018	7.59301	6.23452	5.20688	31.50561	22.66799	15.89995
47710	3.11769	2.87912	2.46327	14.09377	12.68920	11.53607	24.37249	15.83969	9.33900	9.23910	8.97685	8.49505	7.59611	6.24073	5.21310	31.50858	22.67204	15.90695	32.97	6.2	0.00	-2.04	0.01740	0.01203	0.01522	0.01815	0.01881	0.01471	0.00548	0.01520	0.02017	0.01856	0.01285	0.01638	0.01714	0.01773	0.01384	0.00567	0.01597	0.02135
47880	3.12070	2.87684	2.46170	14.09588	12.68729	11.53386	24.38945	15.83758	9.33504	9.23521	8.97319	8.49212	7.59416	6.23967	5.21041	31.49524	22.67008	15.90174
48040	3.12454	2.88213	2.46307	14.09769	12.68773	11.53192	24.42155	15.84924	9.33905	9.23405	8.97237	8.49003	7.59385	6.23696	5.20853	31.47273	22.66491	15.89883
48200	3.12030	2.87776	2.46022	14.09289	12.68470	11.52908	24.48225	15.83490	9.33887	9.23313	8.97061	8.48797	7.59212	6.23984	5.21200	31.51964	22.67349	15.90302
48370	3.12414	2.88132	2.46437	14.09745	12.68722	11.53157	24.39942	15.84440	9.34246	9.23446	8.97431	8.49104	7.59837	6.23916	5.21243	31.51918	22.66479	15.89750
48530	3.12332	2.88483	2.46812	14.09693	12.68885	11.53365	24.48987	15.86290	9.34792	9.23607	8.97312	8.49154	7.60132	6.24216	5.21194	31.50306	22.66996	15.90070
48700	3.12566	2.88443	2.46500	14.09547	12.68472	11.53149	24.48551	15.84371	9.33710	9.23386	8.97058	8.48984	7.59491	6.23674	5.21300	31.50306	22.67097	15.90320
48860	3.12421	2.87966	2.46246	14.09654	12.68798	11.53239	24.40022	15.84233	9.34264	9.23416	8.97274	8.49234	7.59480	6.23404	5.20856	31.51687	22.66756	15.90068
49030	3.12408	2.88280	2.46665	14.09876	12.69003	11.53355	24.47491	15.83770	9.34232	9.23838	8.97708	8.49564	7.59411	6.23754	5.20518	31.51042	22.67948	15.90300
49190	3.12183	2.87646	2.46207	14.09645	12.68626	11.53233	24.38595	15.83149	9.33609	9.23469	8.97267	8.49123	7.59512	6.23524	5.20699	31.50490	22.67336	15.90564
49360	3.12243	2.87983	2.46504	14.09917	12.69043	11.53347	24.42922	15.82988	9.34173	9.23633	8.97442	8.49494	7.59357	6.23251	5.20859	31.51863	22.67051	15.90266	32.97	5.9	0.00	-2.04	0.01740	0.01203	0.01522	0.01815	0.01881	0.01471	0.00548	0.01520	0.02017	0.01856	0.01285	0.01638	0.01714	0.01773	0.01384	0.00567	0.01597	0.02135
49520	3.12093	2.88052	2.46368	14.09949	12.69094	11.53562	24.40276	15.84202	9.34257	9.23939	8.97684	8.49513	7.59345	6.23323	5.20603	31.49700	22.67410	15.90293
49680	3.12219	2.87998	2.46186	14.09825	12.68684	11.53030	24.44627	15.82892	9.33709	9.23541	8.97255	8.49146	7.59354	6.23295	5.20775	31.48459	22.67158	15.89881
49850	3.12062	2.87910	2.46188	14.09511	12.68562	11.52940	24.44979	15.83194	9.33908	9.23328	8.97201	8.49217	7.58878	6.23231	5.20530	31.50942	22.66761	15.89662
50010	3.11828	2.87936	2.46267	14.09153	12.68548	11.52928	24.50059	15.84528	9.34071	9.23370	8.97224	8.48966	7.59578	6.23754	5.20872	31.51264	22.66723	15.90000
50180	3.12329	2.88226	2.46310	14.09548	12.68847	11.53228	24.43517	15.85361	9.34128	9.23714	8.97303	8.49200	7.59730	6.23920	5.21111	31.51541	22.67751	15.90365
50340	3.12528	2.88423	2.46968	14.09963	12.69019	11.53629	24.44546	15.83738	9.34416	9.24015	8.97752	8.49529	7.59583	6.23414	5.20821	31.51449	22.67738	15.90478
50510	3.12041	2.88143	2.46505	14.09725	12.69092	11.53363	24.49052	15.84893	9.34473	9.24104	8.97628	8.49540	7.59602	6.23804	5.21061	31.49884	22.67076	15.90537
50670	3.12310	2.88187	2.46469	14.09958	12.68874	11.53333	24.56534	15.84816	9.34198	9.23859	8.97394	8.49392	7.59533	6.23466	5.20763	31.53801	22.67385	15.90435
50840	3.12131	2.88053	2.46213	14.09729	12.69027	11.53378	24.48916	15.84739	9.34114	9.23891	8.97627	8.49324	7.59411	6.23745	5.20536	31.53893	22.67379	15.90320
51000	3.12164	2.88045	2.46391	14.09807	12.69044	11.53523	24.46718	15.84449	9.34014	9.23900	8.97604	8.49460	7.59346	6.23734	5.21250	31.52321	22.67712	15.90688	33.02	6.2	0.00	-2.04	0.01740	0.01203	0.01522	0.01815	0.01881	0.01471	0.00548	0.01520	0.02017	0.01856	0.01285	0.01638	0.01714	0.01773	0.01384	0.00567	0.01597	0.02135
51170	3.12320	2.88112	2.46250	14.09820	12.68804	11.53325	24.44494	15.84706	9.33898	9.23712	8.97273	8.49282	7.59630	6.23943	5.20989	31.51630	22.67801	15.90823
51330	3.12633	2.87941	2.46256	14.09962	12.68955	11.53350	24.39685	15.84821	9.33830	9.23865	8.97425	8.49343	7.59100	6.23421	5.20461	31.51722	22.67548	15.90196
51500	3.12391	2.88286	2.46496	14.09975	12.69171	11.53671	24.52407	15.84403	9.34273	9.24044	8.97697	8.49476	7.59182	6.23698	5.20766	31.53890	22.67895	15.90623
51660	3.12263	2.88350	2.46466	14.09730	12.68770	11.53260	24.49926	15.84457	9.33918	9.23662	8.97341	8.49261	7.59325	6.23483	5.21017	31.48502	22.67965	15.90882
51820	3.12384	2.88052	2.46491	14.10121	12.69125	11.53705	24.45605	15.84150	9.33871	9.23950	8.97731	8.49514	7.59164	6.23310	5.20507	31.54536	22.67271	15.90453
51990	3.11948	2.87885	2.46571	14.09957	12.69203	11.53618	24.47098	15.85339	9.34308	9.24019	8.97667	8.49673	7.59550	6.23606	5.20666	31.53243	22.68104	15.90589
52150	3.12101	2.87922	2.45986	14.09885	12.68850	11.53372	24.51970	15.83698	9.33640	9.23651	8.97168	8.49156	7.59078	6.23160	5.20562	31.53520	22.67321	15.90336
52320	3.12048	2.87953	2.46171	14.09540	12.68746	11.53321	24.46826	15.84476	9.33838	9.23599	8.97272	8.49271	7.59195	6.23518	5.20483	31.50525	22.66968	15.90374
52480	3.11915	2.87886	2.46062	14.09547	12.68641	11.53284	24.47451	15.84092	9.33681	9.23522	8.97096	8.49044	7.59265	6.23504	5.20925	31.53751	22.67422	15.90692
52650	3.12076	2.88215	2.46413	14.10026	12.68942	11.53365	24.47766	15.85314	9.33970	9.23752	8.97337	8.49340	7.59337	6.23822	5.20729	31.47245	22.67263	15.90199	32.91	5.9	0.00	-2.04	0.01740	0.01203	0.01522	0.01815	0.01881	0.01471	0.00548	0.01520	0.02017	0.01855	0.01285	0.01638	0.01714	0.01773	0.01384	0.00567	0.01597	0.02135
52810	3.12213	2.88230	2.46775	14.10087	12.69240	11.53774	24.57267	15.84773	9.34399	9.24266	8.97704	8.49752	7.59675	6.23935	5.20700	31.50646	22.67837	15.90679
52970	3.12188	2.88073	2.46323	14.09864	12.69084	11.53441	24.45269	15.83791	9.33836	9.23869	8.97234	8.49300	7.59069	6.23282	5.20578	31.50830	22.67194	15.90273
53140	3.11970	2.87878	2.46050	14.09677	12.68801	11.53236	24.47874	15.83684	9.33723	9.23780	8.97159	8.49157	7.59272	6.23641	5.20878	31.51152	22.67900	15.90420
53300	3.12316	2.88313	2.46465	14.10113	12.69158	11.53543	24.48337	15.84773	9.34142	9.23927	8.97593	8.49546	7.59352	6.23276	5.20692	31.51475	22.67238	15.90309
53470	3.12086	2.87882	2.46440	14.09679	12.68964	11.53533	24.49833	15.84650	9.34256	9.23969	8.97679	8.49610	7.59740	6.23429	5.20928	31.51060	22.67484	15.90521
53630	3.12080	2.88065	2.46292	14.09729	12.68754	11.53208	24.52887	15.83408	9.34146	9.23589	8.97196	8.49140	7.59441	6.23387	5.20319	31.52212	22.66948	15.89926
53790	3.11908	2.87843	2.46346	14.09140	12.68741	11.53427	24.46625	15.84347	9.34171	9.23938	8.97477	8.49472	7.59428	6.23736	5.20738	31.52812	22.67162	15.90368
53960	3.12056	2.87767	2.46172	14.09633	12.68775	11.53187	24.42860	15.83818	9.33463	9.23750	8.97244	8.49262	7.59208	6.23373	5.20567	31.53181	22.67730	15.90124
54120	3.11879	2.87954	2.46087	14.09727	12.68857	11.53333	24.51632	15.84109	9.34041	9.23848	8.97375	8.49216	7.59177	6.23174	5.20547	31.52950	22.66998	15.90165
54290	3.11893	2.87945	2.46025	14.09568	12.68505	11.53061	24.45201	15.83214	9.33780	9.23661	8.97182	8.49018	7.59450	6.23754	5.20954	31.48866	22.67860	15.90774	32.97	6.1	0.00	-2.04	0.01740	0.01203	0.01522	0.01815	0.01881	0.01471	0.00548	0.01520	0.02017	0.01855	0.01285	0.01638	0.01714	0.01773	0.01384	0.00567	0.01597	0.02135
54450	3.12159	2.88001	2.46484	14.10076	12.69076	11.53605	24.50310	15.84659	9.34094	9.24052	8.97534	8.49504	7.59035	6.23217	5.20415	31.52733	22.67103	15.90217
54610	3.12015	2.87858	2.46320	14.09989	12.69476	11.53781	24.45093	15.84164	9.34182	9.24383	8.97979	8.49890	7.59254	6.23476	5.20749	31.53425	22.67298	15.90461
54780	3.12072	2.87739	2.46113	14.09997	12.69142	11.53362	24.42954	15.84322	9.33727	9.23949	8.97568	8.49560	7.59011	6.23242	5.20586	31.47810	22.67664	15.90702
54940	3.12075	2.87810	2.46234	14.10039	12.68968	11.53554	24.44849	15.83911	9.33759	9.23983	8.97623	8.49480	7.58911	6.22846	5.20302	31.48820	22.66655	15.90181
55110	3.11648	2.87514	2.45991	14.09515	12.68652	11.53147	24.48377	15.84398	9.33183	9.23655	8.97314	8.49288	7.58866	6.23547	5.20709	31.52595	22.67986	15.90623
55270	3.12127	2.88039	2.46399	14.09932	12.69203	11.53685	24.43982	15.84444	9.34231	9.24314	8.97772	8.49731	7.59062	6.23011	5.20142	31.52226	22.67954	15.90537
55440	3.11991	2.87924	2.46224	14.10233	12.69592	11.53895	24.39742	15.84874	9.33981	9.24509	8.98081	8.49894	7.59282	6.23219	5.20430	31.53563	22.67765	15.90666
55600	3.11913	2.87423	2.46155	14.10085	12.69169	11.53538	24.39903	15.83961	9.33488	9.24169	8.97788	8.49686	7.59430	6.23278	5.20571	31.51719	22.68093	15.90734
55760	3.12172	2.87974	2.46176	14.10192	12.69125	11.53458	24.50064	15.84210	9.34168	9.24080	8.97709	8.49718	7.58825	6.23009	5.20288	31.47121	22.66870	15.90425
55930	3.11859	2.87884	2.46137	14.09896	12.69120	11.53795	24.48535	15.83976	9.34169	9.24335	8.97791	8.49877	7.59248	6.23349	5.20752	31.52481	22.67943	15.90624	32.97	6.1	0.00	-2.04	0.01740	0.01203	0.01522	0.01815	0.01881	0.01471	0.00548	0.01520	0.02017	0.01855	0.01285	0.01638	0.01714	0.01773	0.01384	0.00567	0.01597	0.02135
56090	3.11745	2.87798	2.46150	14.10258	12.69194	11.53795	24.44166	15.83735	9.33808	9.24158	8.97913	8.49882	7.58845	6.23306	5.20529	31.51652	22.67526	15.90646
56260	3.12121	2.88199	2.46382	14.10245	12.69481	11.53944	24.45033	15.84559	9.34352	9.24503	8.98007	8.49996	7.59726	6.23575	5.20718	31.51513	22.67924	15.91077
56420	3.12192	2.88236	2.46022	14.10066	12.69276	11.53683	24.50005	15.83455	9.34199	9.24132	8.97653	8.49667	7.59148	6.23357	5.20441	31.46458	22.67899	15.90748
56580	3.11749	2.87710	2.46079	14.09898	12.69074	11.53364	24.50168	15.84256	9.33653	9.23922	8.97394	8.49498	7.59111	6.23585	5.20670	31.51467	22.68416	15.91019
56750	3.11829	2.87998	2.46159	14.10125	12.69247	11.53503	24.44221	15.83562	9.33861	9.24104	8.97830	8.49821	7.58868	6.23155	5.20454	31.51145	22.68069	15.90746
56910	3.11773	2.87824	2.46205	14.10086	12.69354	11.53826	24.38389	15.83532	9.33688	9.24398	8.97918	8.49923	7.59328	6.23293	5.20542	31.51053	22.67861	15.90901
57080	3.11781	2.87811	2.46202	14.10219	12.69212	11.53627	24.49351	15.83317	9.33642	9.24159	8.97741	8.49715	7.59085	6.23538	5.20886	31.50869	22.67747	15.90827
57240	3.11955	2.87765	2.46156	14.10213	12.69223	11.53631	24.47502	15.83942	9.33783	9.24235	8.97714	8.49791	7.58975	6.22889	5.20413	31.52020	22.67589	15.90800
57410	3.11655	2.88048	2.46410	14.10110	12.69364	11.53885	24.45630	15.84524	9.34063	9.24266	8.97989	8.49994	7.59292	6.23287	5.20706	31.52896	22.68031	15.90739
57570	3.11898	2.87735	2.46169	14.09977	12.69081	11.53705	24.43831	15.82831	9.33616	9.24058	8.97695	8.49656	7.59268	6.23256	5.20667	31.50019	22.68023	15.90971	32.97	6.1	0.00	-2.04	0.01740	0.01203	0.01522	0.01815	0.01881	0.01471	0.00548	0.01520	0.02017	0.01856	0.01285	0.01638	0.01714	0.01773	0.01384	0.00567	0.01597	0.02135
57740	3.11897	2.87714	2.46325	14.10256	12.69282	11.53814	24.47437	15.84210	9.33569	9.24206	8.97792	8.49663	7.58898	6.23024	5.20541	31.50111	22.67758	15.90603
57900	3.11936	2.87855	2.46465	14.10387	12.69444	11.54108	24.40319	15.83478	9.34024	9.24535	8.97962	8.49933	7.59184	6.23470	5.20605	31.52783	22.67890	15.90876
58070	3.11988	2.87610	2.46055	14.10169	12.69175	11.53601	24.40885	15.82984	9.33435	9.24170	8.97786	8.49740	7.59456	6.23426	5.20894	31.48824	22.67701	15.90944
58230	3.11886	2.87929	2.46088	14.10416	12.69370	11.53826	24.42452	15.83310	9.33655	9.24245	8.98035	8.49933	7.59110	6.23574	5.20435	31.51262	22.67524	15.90926
58390	3.11959	2.87845	2.46160	14.10254	12.69250	11.53844	24.46894	15.83953	9.33810	9.24254	8.97851	8.49861	7.59038	6.23036	5.20318	31.52184	22.67480	15.90578
58560	3.11844	2.87438	2.45939	14.09916	12.69018	11.53354	24.47301	15.84640	9.33561	9.23916	8.97515	8.49382	7.58950	6.23101	5.20195	31.52552	22.67329	15.90154
58720	3.11757	2.87638	2.46333	14.09916	12.69072	11.53664	24.48443	15.84068	9.33681	9.24076	8.97595	8.49672	7.59096	6.23106	5.20478	31.54399	22.67505	15.90479
58880	3.11826	2.87754	2.46116	14.09763	12.68802	11.53335	24.45266	15.84114	9.33267	9.23967	8.97482	8.49440	7.58938	6.22952	5.20016	31.54584	22.67480	15.90249
59050	3.12074	2.87872	2.46423	14.10186	12.69409	11.53844	24.45917	15.84183	9.34274	9.24277	8.97958	8.49888	7.59597	6.23678	5.20840	31.55185	22.67392	15.90641
59210	3.11994	2.87820	2.46110	14.09974	12.69019	11.53511	24.48467	15.84284	9.33405	9.23868	8.97537	8.49609	7.58999	6.23162	5.20419	31.51769	22.67415	15.90446	33.02	6.1	0.00	-2.04	0.01740	0.01203	0.01522	0.01815	0.01881	0.01471	0.00548	0.01520	0.02017	0.01856	0.01285	0.01638	0.01714	0.01773	0.01384	0.00567	0.01597	0.02135
59380	3.11650	2.87562	2.45871	14.09915	12.68756	11.53321	24.43963	15.83453	9.33351	9.23891	8.97463	8.49430	7.58920	6.22886	5.20150	31.48319	22.66519	15.90029
59540	3.11586	2.87228	2.45910	14.09402	12.68415	11.52908	24.43503	15.82545	9.33246	9.23427	8.96986	8.49208	7.58745	6.23230	5.20604	31.50020	22.66633	15.90291
59710	3.11653	2.87995	2.46252	14.09888	12.68914	11.53264	24.40342	15.84250	9.33788	9.23916	8.97632	8.49653	7.59195	6.23656	5.20864	31.50020	22.67705	15.90870
59870	3.12233	2.87968	2.46201	14.10305	12.69304	11.53526	24.46348	15.84468	9.33692	9.24177	8.97876	8.49744	7.59056	6.23353	5.20641	31.51539	22.66980	15.90507
60040	3.11846	2.87965	2.46328	14.09692	12.68789	11.53381	24.48086	15.84169	9.33699	9.24077	8.97587	8.49647	7.59166	6.23319	5.20304	31.51309	22.67345	15.90545
60200	3.11966	2.87791	2.46237	14.09701	12.69075	11.53421	24.48957	15.83832	9.33687	9.24056	8.97630	8.49576	7.58996	6.23105	5.20738	31.48273	22.67680	15.90487
60370	3.11728	2.87644	2.46170	14.09709	12.68769	11.53274	24.42638	15.84296	9.33685	9.24008	8.97660	8.49544	7.58956	6.23275	5.20519	31.50388	22.67774	15.90485
60530	3.12007	2.87970	2.46330	14.09771	12.68965	11.53589	24.45318	15.83989	9.33964	9.24051	8.97626	8.49800	7.58884	6.23372	5.20645	31.47860	22.67112	15.90236
60700	3.12012	2.88078	2.46313	14.10094	12.69230	11.53788	24.49229	15.84825	9.34328	9.24337	8.97971	8.49942	7.59115	6.23497	5.20685	31.49882	22.66778	15.90408
60860	3.12048	2.87701	2.46257	14.09834	12.68935	11.53476	24.45537	15.84506	9.33894	9.24059	8.97502	8.49653	7.59192	6.23086	5.20319	31.53207	22.67261	15.90442	32.97	6.1	0.00	-2.04	0.01740	0.01203	0.01522	0.01815	0.01881	0.01471	0.00548	0.01521	0.02017	0.01856	0.01285	0.01638	0.01714	0.01773	0.01384	0.00567	0.01597	0.02135
61030	3.11540	2.87612	2.46105	14.09520	12.68785	11.53214	24.45565	15.83843	9.33328	9.24110	8.97673	8.49635	7.59082	6.23439	5.20491	31.53714	22.67229	15.90358
61190	3.11905	2.87722	2.45929	14.09762	12.69155	11.53378	24.47301	15.83701	9.33689	9.24241	8.97632	8.49729	7.58641	6.23225	5.20570	31.50165	22.66908	15.90284
61360	3.11847	2.87637	2.46030	14.09877	12.69050	11.53660	24.50130	15.84288	9.34302	9.24292	8.97779	8.49661	7.59178	6.23104	5.20517	31.49475	22.67557	15.90365
61520	3.11749	2.87783	2.45903	14.09561	12.68669	11.53257	24.49994	15.83238	9.33596	9.24007	8.97478	8.49645	7.59116	6.23497	5.20460	31.49935	22.67646	15.90609
61690	3.11822	2.87780	2.46238	14.09928	12.69117	11.53648	24.42289	15.84330	9.33907	9.24255	8.97627	8.49609	7.58655	6.22905	5.20282	31.49889	22.67614	15.90351
61850	3.11809	2.87589	2.46000	14.09637	12.68828	11.53496	24.44508	15.84111	9.33698	9.24208	8.97495	8.49706	7.58895	6.23084	5.20552	31.51961	22.67198	15.90248
62020	3.11695	2.87897	2.46272	14.09867	12.68974	11.53597	24.45809	15.83732	9.33988	9.24291	8.97786	8.49934	7.59097	6.23132	5.20330	31.53761	22.67091	15.90216
62180	3.11594	2.87327	2.46008	14.09421	12.68752	11.53267	24.42452	15.84127	9.33674	9.24150	8.97362	8.49699	7.58800	6.23313	5.20104	31.51500	22.67261	15.90629
62350	3.11761	2.87710	2.46053	14.09629	12.69032	11.53621	24.40319	15.82599	9.33787	9.24529	8.97843	8.49983	7.59161	6.22976	5.20553	31.54685	22.67551	15.90480
62510	3.11730	2.87835	2.46073	14.09896	12.69151	11.53713	24.41463	15.83376	9.33891	9.24382	8.97789	8.49770	7.59046	6.23455	5.20554	31.53154	22.67868	15.90795	32.97	6.1	0.00	-2.04	0.01740	0.01203	0.01522	0.01815	0.01881	0.01471	0.00548	0.01521	0.02017	0.01855	0.01285	0.01638	0.01714	0.01773	0.01384	0.00567	0.01597	0.02135
62680	3.11780	2.87610	2.45960	14.09846	12.69244	11.53699	24.41382	15.83268	9.33815	9.24416	8.97848	8.49841	7.58842	6.23074	5.20403	31.54124	22.67792	15.90341
62840	3.11617	2.87784	2.46351	14.09691	12.69262	11.53943	24.43409	15.83414	9.34039	9.24679	8.98111	8.50162	7.58982	6.23339	5.20507	31.51402	22.68076	15.90934
63010	3.11957	2.87789	2.46286	14.10055	12.69077	11.53791	24.44573	15.83318	9.33720	9.24560	8.97812	8.49974	7.58814	6.22896	5.20075	31.54309	22.67048	15.90384
63170	3.11591	2.87414	2.45782	14.09726	12.69166	11.53443	24.41895	15.83728	9.33359	9.24379	8.97592	8.49746	7.58882	6.23138	5.20365	31.50803	22.68001	15.90840
63340	3.11892	2.87833	2.46076	14.09914	12.69333	11.53936	24.42760	15.83686	9.33483	9.24745	8.98050	8.50149	7.58840	6.22987	5.20376	31.51909	22.67666	15.90689
63500	3.11824	2.87778	2.46102	14.10285	12.69565	11.54231	24.42408	15.83226	9.33807	9.24960	8.98264	8.50402	7.58991	6.23099	5.20449	31.51770	22.68480	15.90925
63670	3.11652	2.87523	2.45885	14.10195	12.69398	11.53820	24.36991	15.82250	9.33212	9.24621	8.97905	8.50059	7.59019	6.23620	5.20664	31.50067	22.68670	15.91393
63830	3.12125	2.87618	2.46165	14.10437	12.69683	11.54225	24.44167	15.83655	9.33671	9.24877	8.98205	8.50492	7.59162	6.23109	5.20277	31.51494	22.68676	15.91176
64000	3.11589	2.87332	2.45985	14.10258	12.69558	11.54231	24.42192	15.83602	9.33272	9.24765	8.98227	8.50329	7.58729	6.22775	5.20277	31.50895	22.68152	15.91147
64160	3.11487	2.87191	2.45765	14.10247	12.69382	11.54008	24.37132	15.82487	9.33440	9.24683	8.98126	8.50319	7.59154	6.23329	5.20623	31.55279	22.69004	15.91849	32.97	6.1	0.00	-2.04	0.01740	0.01203	0.01522	0.01815	0.01881	0.01471	0.00548	0.01520	0.02017	0.01856	0.01285	0.01637	0.01714	0.01773	0.01384	0.00567	0.01597	0.02135
64330	3.11654	2.87585	2.45999	14.10892	12.69810	11.54466	24.36702	15.83456	9.33726	9.25099	8.98425	8.50561	7.58782	6.23113	5.20568	31.50619	22.68606	15.91255
64490	3.11537	2.87593	2.46194	14.10584	12.69945	11.54471	24.49819	15.83874	9.33990	9.25082	8.98511	8.50547	7.58876	6.23280	5.20448	31.53431	22.68209	15.91255
64660	3.11537	2.87582	2.46002	14.10472	12.69866	11.54407	24.48649	15.84418	9.33877	9.25192	8.98398	8.50424	7.58949	6.23144	5.20521	31.53062	22.68436	15.91425
64820	3.11611	2.87381	2.45950	14.10501	12.69494	11.54233	24.42928	15.83766	9.33514	9.24885	8.98158	8.50291	7.58957	6.23200	5.20590	31.51125	22.68335	15.91359
64990	3.11835	2.87727	2.46323	14.10630	12.69952	11.54520	24.44064	15.83916	9.33867	9.25289	8.98639	8.50792	7.59559	6.23748	5.20814	31.52462	22.68556	15.91673
65150	3.11790	2.88093	2.46300	14.10881	12.69988	11.54477	24.46666	15.84150	9.34146	9.25118	8.98525	8.50584	7.59203	6.23473	5.20850	31.50573	22.68594	15.91422
65320	3.11951	2.87802	2.46374	14.10743	12.70192	11.54731	24.41037	15.83705	9.33951	9.25271	8.98546	8.50719	7.59037	6.23450	5.20628	31.52277	22.68272	15.91673
65480	3.11588	2.87634	2.46442	14.10818	12.70460	11.55013	24.47263	15.83881	9.34040	9.25489	8.98980	8.50945	7.59278	6.23749	5.20840	31.53800	22.68783	15.91980
65650	3.11943	2.87829	2.46176	14.11023	12.70271	11.54829	24.44389	15.84092	9.33949	9.25396	8.98872	8.50895	7.59477	6.22946	5.20191	31.52277	22.68316	15.91560
65810	3.11445	2.87681	2.46047	14.10876	12.70039	11.54599	24.37486	15.83991	9.33492	9.25218	8.98596	8.50677	7.58774	6.23223	5.20425	31.51391	22.68515	15.91703	32.97	6.1	0.00	-2.04	0.01740	0.01203	0.01522	0.01815	0.01881	0.01471	0.00548	0.01520	0.02017	0.01855	0.01285	0.01637	0.01714	0.01773	0.01384	0.00567	0.01597	0.02135
65980	3.11626	2.87631	2.46208	14.10903	12.70282	11.54718	24.41987	15.83003	9.33770	9.25380	8.98870	8.50932	7.58977	6.22929	5.20206	31.50746	22.68143	15.91540
66140	3.11745	2.87383	2.46010	14.11132	12.70513	11.54724	24.42366	15.83578	9.33562	9.25306	8.98707	8.50976	7.58641	6.23210	5.20228	31.54159	22.68705	15.91692
66310	3.11621	2.87355	2.45821	14.10844	12.69930	11.54280	24.39775	15.83807	9.33612	9.24999	8.98535	8.50613	7.59279	6.23133	5.20573	31.54206	22.68478	15.91710
66470	3.11897	2.87543	2.46247	14.11005	12.70213	11.54653	24.45749	15.83735	9.33729	9.25273	8.98630	8.50744	7.58854	6.22867	5.19907	31.51483	22.68522	15.91423
66640	3.11704	2.87632	2.46082	14.11230	12.70625	11.54814	24.46780	15.83267	9.34091	9.25434	8.98899	8.50902	7.59263	6.23207	5.20491	31.54437	22.68844	15.91707
66800	3.11751	2.87685	2.46060	14.10964	12.70275	11.54554	24.41204	15.84003	9.34009	9.25264	8.98543	8.50701	7.58951	6.23237	5.20586	31.51622	22.69097	15.91850
66960	3.11667	2.87662	2.45992	14.11178	12.70407	11.54765	24.40611	15.83336	9.33799	9.25384	8.98725	8.50805	7.58997	6.23314	5.20184	31.51115	22.68471	15.91269
67130	3.11828	2.87530	2.46296	14.11294	12.70692	11.55181	24.40826	15.84164	9.34116	9.25550	8.99013	8.51198	7.59259	6.23115	5.20603	31.53328	22.69286	15.91827
67290	3.11669	2.87324	2.45972	14.11213	12.70316	11.54528	24.39667	15.83823	9.33561	9.25138	8.98671	8.50747	7.59154	6.23061	5.20212	31.51345	22.68288	15.91486
67460	3.11723	2.87505	2.46030	14.10624	12.70098	11.54597	24.39429	15.83601	9.33434	9.25193	8.98704	8.50864	7.59060	6.22958	5.20080	31.50017	22.68509	15.91169	32.97	6.3	0.00	-2.04	0.01740	0.01203	0.01522	0.01815	0.01881	0.01471	0.00548	0.01520	0.02017	0.01856	0.01285	0.01637	0.01714	0.01773	0.01384	0.00567	0.01597	0.02135
67620	3.11376	2.87150	2.45592	14.10703	12.69871	11.54169	24.45727	15.83689	9.33231	9.24920	8.98332	8.50530	7.58884	6.23254	5.20389	31.52919	22.68673	15.91593
67790	3.11741	2.87520	2.45952	14.10978	12.70235	11.54573	24.41911	15.84475	9.33700	9.25247	8.98648	8.50659	7.59607	6.23756	5.20715	31.54951	22.68850	15.91695
67950	3.11885	2.87957	2.46465	14.11253	12.70587	11.54759	24.51111	15.84091	9.34361	9.25513	8.98926	8.51109	7.59517	6.23231	5.20372	31.54397	22.68604	15.91501
68120	3.11738	2.87869	2.46095	14.11066	12.70305	11.54583	24.49449	15.84774	9.34123	9.25326	8.98591	8.50810	7.59075	6.23145	5.20301	31.53796	22.68736	15.91512
68280	3.11485	2.87699	2.45926	14.10799	12.70256	11.54566	24.50048	15.84279	9.34121	9.25389	8.98541	8.50940	7.59337	6.23518	5.20438	31.50293	22.68717	15.91401
68450	3.11794	2.87824	2.45957	14.10862	12.70113	11.54429	24.49204	15.84321	9.33628	9.25238	8.98607	8.50843	7.59040	6.23457	5.20461	31.51766	22.68932	15.91733
68610	3.11616	2.87639	2.45967	14.11120	12.70531	11.54765	24.43669	15.83949	9.33901	9.25520	8.98883	8.50985	7.58896	6.23033	5.20224	31.50431	22.68654	15.91410
68780	3.11917	2.87772	2.46410	14.11481	12.70849	11.55101	24.42966	15.84279	9.34265	9.25829	8.99201	8.51384	7.59143	6.23350	5.20259	31.49879	22.68932	15.91959
68940	3.11649	2.87514	2.46078	14.11302	12.70492	11.54904	24.45863	15.84306	9.34072	9.25726	8.98958	8.51313	7.58876	6.23061	5.19891	31.53565	22.68768	15.91830
69110	3.11571	2.87103	2.45794	14.11331	12.70580	11.54974	24.48568	15.83973	9.33830	9.25724	8.99171	8.51371	7.58995	6.23353	5.20432	31.53555	22.69079	15.92050	32.97	6.1	0.00	-2.04	0.01740	0.01203	0.01522	0.01815	0.01881	0.01471	0.00548	0.01520	0.02017	0.01855	0.01285	0.01637	0.01714	0.01773	0.01384	0.00567	0.01597	0.02135
69270	3.11528	2.87368	2.45729	14.11408	12.70838	11.55074	24.44443	15.83157	9.33633	9.25931	8.99125	8.51508	7.58718	6.22650	5.20083	31.53416	22.69091	15.92027
69440	3.11576	2.87582	2.45849	14.11650	12.71083	11.55382	24.49819	15.83934	9.33867	9.26128	8.99356	8.51524	7.59006	6.22911	5.20601	31.55265	22.68889	15.92074
69600	3.11569	2.87503	2.45653	14.11460	12.70767	11.54988	24.40524	15.83413	9.33675	9.25860	8.99146	8.51292	7.58894	6.23276	5.20625	31.49638	22.69439	15.92160
69770	3.11768	2.87471	2.46029	14.11626	12.71101	11.55390	24.46720	15.83766	9.33797	9.26095	8.99284	8.51642	7.59191	6.23029	5.20304	31.57441	22.69471	15.92217
69930	3.11770	2.87812	2.46052	14.11497	12.71078	11.55554	24.40092	15.83658	9.34006	9.26244	8.99395	8.51585	7.58962	6.23385	5.20446	31.52770	22.69490	15.92160
70100	3.11704	2.87842	2.46402	14.11681	12.71365	11.55777	24.41118	15.84153	9.34193	9.26367	8.99727	8.51847	7.59090	6.23350	5.20395	31.54294	22.69237	15.92558
70260	3.11617	2.87459	2.46054	14.11672	12.71147	11.55365	24.44091	15.84126	9.33659	9.26143	8.99406	8.51681	7.59246	6.23361	5.20240	31.52217	22.69502	15.92538
70430	3.11654	2.87602	2.46126	14.11865	12.71167	11.55603	24.50337	15.84345	9.33592	9.26384	8.99659	8.51936	7.58939	6.22883	5.20473	31.50512	22.69654	15.92678
70590	3.11731	2.87586	2.46171	14.11797	12.71359	11.55724	24.48704	15.84578	9.33855	9.26249	8.99544	8.51797	7.59255	6.23554	5.20871	31.52355	22.69477	15.92461
70760	3.11811	2.87503	2.46066	14.11828	12.71193	11.55683	24.43836	15.84624	9.33699	9.26316	8.99556	8.51715	7.59192	6.23250	5.20787	31.54792	22.69140	15.92429	32.97	6.0	0.00	-2.04	0.01740	0.01203	0.01522	0.01815	0.01881	0.01471	0.00548	0.01520	0.02017	0.01855	0.01285	0.01637	0.01714	0.01773	0.01384	0.00567	0.01597	0.02135
70920	3.11574	2.87821	2.46282	14.11745	12.71344	11.55952	24.46682	15.84862	9.34186	9.26558	8.99730	8.52082	7.59188	6.23482	5.20475	31.50778	22.69626	15.92831
71090	3.11654	2.87582	2.46010	14.11774	12.71375	11.55742	24.46384	15.83497	9.33940	9.26302	8.99579	8.51738	7.59001	6.23590	5.20377	31.52299	22.69936	15.92723
71250	3.11686	2.87714	2.46073	14.11780	12.71384	11.55716	24.43917	15.84141	9.33606	9.26358	8.99608	8.51901	7.59356	6.23517	5.20597	31.55162	22.69746	15.92664
71420	3.11603	2.87778	2.46068	14.11986	12.71202	11.55722	24.48584	15.84621	9.33671	9.26413	8.99698	8.51893	7.59155	6.23213	5.20381	31.53314	22.69993	15.92504
71580	3.11885	2.87769	2.46553	14.12259	12.71887	11.56214	24.46601	15.85737	9.34055	9.26927	9.00155	8.52394	7.59493	6.23647	5.20822	31.52068	22.69905	15.93035
71750	3.11811	2.87855	2.46170	14.12253	12.71820	11.56224	24.46655	15.83298	9.34267	9.26914	9.00070	8.52270	7.59235	6.23276	5.20263	31.53360	22.69740	15.93037
71910	3.11717	2.88053	2.46069	14.12264	12.71984	11.56388	24.46791	15.84302	9.33923	9.26898	9.00090	8.52315	7.59189	6.23560	5.20723	31.52206	22.70619	15.93272
72080	3.11643	2.87674	2.46200	14.12419	12.71911	11.56440	24.42403	15.83543	9.34098	9.26977	9.00140	8.52307	7.59032	6.23186	5.20387	31.54745	22.70297	15.93302
72240	3.11710	2.87580	2.46154	14.12524	12.72231	11.56696	24.46791	15.83720	9.33696	9.27252	9.00393	8.52558	7.59112	6.23044	5.20504	31.53129	22.70354	15.93668
72410	3.11690	2.87441	2.45797	14.12476	12.71933	11.56333	24.44730	15.83444	9.33432	9.26884	9.00155	8.51943	7.58997	6.23241	5.20590	31.59998	22.69976	15.93139	32.97	6.0	0.00	-2.04	0.01740	0.01203	0.01522	0.01815	0.01881	0.01471	0.00548	0.01520	0.02017	0.01855	0.01285	0.01637	0.01714	0.01773	0.01384	0.00567	0.01597	0.02135
72570	3.11769	2.87538	2.46047	14.12465	12.71735	11.56101	24.39839	15.83517	9.34169	9.26778	9.00010	8.52184	7.58970	6.23070	5.19963	31.55084	22.70343	15.92940
72740	3.11521	2.87576	2.45910	14.12290	12.71809	11.56235	24.40836	15.83616	9.33845	9.26712	8.99966	8.52276	7.59061	6.23092	5.20282	31.53005	22.70274	15.93342
72900	3.11629	2.87739	2.45990	14.12231	12.71762	11.56356	24.47415	15.83325	9.33563	9.26762	9.00119	8.52250	7.58977	6.22990	5.19789	31.56241	22.69957	15.93087
73070	3.11330	2.87466	2.45808	14.12305	12.71709	11.56177	24.35535	15.83750	9.34015	9.26708	8.99945	8.52149	7.59057	6.22971	5.20216	31.53144	22.70141	15.93078
73230	3.11619	2.87446	2.45794	14.12220	12.71427	11.55888	24.35669	15.83115	9.33321	9.26524	8.99737	8.51975	7.58929	6.23390	5.20542	31.55731	22.70438	15.93304
73400	3.11703	2.87435	2.46008	14.12529	12.71929	11.56370	24.43052	15.83885	9.33563	9.26621	9.00042	8.52114	7.58817	6.22841	5.20003	31.54991	22.70444	15.93161
73560	3.11436	2.87261	2.45881	14.12294	12.71847	11.56405	24.42051	15.84613	9.33839	9.26672	9.00035	8.52408	7.58800	6.22934	5.20280	31.52913	22.69881	15.93216
73730	3.11317	2.87342	2.45820	14.12248	12.71664	11.56021	24.44215	15.82954	9.33655	9.26476	8.99988	8.52059	7.59014	6.23306	5.20431	31.55639	22.70331	15.93379
73890	3.11600	2.87546	2.46063	14.12655	12.71940	11.56148	24.43241	15.83750	9.33785	9.26745	8.99922	8.52163	7.59006	6.22731	5.19928	31.53144	22.70134	15.93114
74060	3.11468	2.87798	2.46169	14.12550	12.72308	11.56436	24.43198	15.84739	9.34163	9.26899	9.00343	8.52437	7.59243	6.23500	5.20507	31.58008	22.70300	15.93342	32.97	6.2	0.00	-2.04	0.01740	0.01203	0.01522	0.01815	0.01881	0.01471	0.00548	0.01520	0.02017	0.01855	0.01285	0.01637	0.01714	0.01773	0.01384	0.00567	0.01597	0.02135
74220	3.11563	2.87441	2.45892	14.12402	12.71851	11.56138	24.37937	15.83248	9.33395	9.26549	8.99963	8.52064	7.58888	6.23491	5.20644	31.52504	22.70623	15.93426
74380	3.11769	2.87500	2.46102	14.12369	12.71751	11.56161	24.45418	15.83539	9.33704	9.26595	8.99918	8.52155	7.58880	6.23229	5.20257	31.51951	22.69782	15.93091
74550	3.11497	2.87680	2.46206	14.12542	12.71933	11.56305	24.41360	15.84221	9.34098	9.27045	9.00384	8.52255	7.59208	6.23527	5.20292	31.50569	22.70781	15.93455
74710	3.11725	2.87705	2.46011	14.12146	12.71673	11.56075	24.45933	15.83999	9.34126	9.26743	9.00101	8.52139	7.58871	6.23131	5.20742	31.56062	22.70193	15.93553
74880	3.11692	2.87799	2.46164	14.12373	12.71844	11.56280	24.47644	15.84290	9.33884	9.26889	9.00087	8.52276	7.59244	6.23195	5.20485	31.53842	22.69617	15.93232
75040	3.11647	2.87524	2.45910	14.12220	12.71760	11.56302	24.45445	15.83447	9.34007	9.26826	9.00277	8.52315	7.59079	6.23097	5.20170	31.50477	22.70009	15.93268
75210	3.11468	2.87620	2.46117	14.12323	12.71685	11.56181	24.49465	15.84371	9.33908	9.26771	9.00126	8.52248	7.59225	6.23451	5.20611	31.51536	22.69940	15.93288
75370	3.11503	2.87596	2.46077	14.12310	12.71785	11.56284	24.43468	15.84371	9.33754	9.26867	9.00088	8.52320	7.58944	6.23243	5.20233	31.55368	22.70591	15.93148
75540	3.11620	2.87697	2.46120	14.12255	12.71527	11.56161	24.49248	15.84570	9.33951	9.26743	9.00144	8.52359	7.59180	6.23371	5.20485	31.52504	22.70028	15.93024
75700	3.11402	2.87651	2.45849	14.12021	12.71487	11.55872	24.42673	15.83528	9.33316	9.26433	8.99820	8.52085	7.58986	6.23219	5.20227	31.50148	22.69916	15.93126	32.97	6.1	0.00	-2.04	0.01740	0.01203	0.01522	0.01815	0.01881	0.01471	0.00548	0.01520	0.02017	0.01855	0.01285	0.01637	0.01714	0.01773	0.01384	0.00567	0.01597	0.02135
75870	3.11621	2.87579	2.46165	14.12082	12.71576	11.56032	24.46384	15.84828	9.33512	9.26492	9.00121	8.52057	7.59103	6.23524	5.20545	31.55500	22.70865	15.93746
76030	3.11893	2.87814	2.46112	14.12566	12.72025	11.56481	24.41079	15.84870	9.34405	9.26847	9.00287	8.52443	7.59134	6.23504	5.20595	31.57121	22.70340	15.93171
76200	3.11824	2.87764	2.45836	14.12277	12.71709	11.56190	24.43836	15.83528	9.33080	9.26709	9.00040	8.52150	7.58598	6.23195	5.20298	31.53744	22.70125	15.93201
76360	3.11519	2.87537	2.46069	14.12259	12.71851	11.56130	24.44811	15.84053	9.33776	9.26769	9.00131	8.52292	7.58983	6.23217	5.20288	31.56518	22.70258	15.93264
76530	3.11464	2.87458	2.45760	14.12294	12.71649	11.56124	24.42079	15.82747	9.33609	9.26577	9.00158	8.52125	7.59105	6.23543	5.20479	31.55639	22.70498	15.93237
76690	3.11940	2.87806	2.45930	14.12338	12.71676	11.56153	24.45190	15.83961	9.34001	9.26765	9.00253	8.52167	7.59182	6.23257	5.20436	31.53605	22.70352	15.92914
76860	3.11737	2.87656	2.46260	14.12391	12.72165	11.56452	24.42565	15.83904	9.34176	9.27106	9.00433	8.52580	7.59121	6.23272	5.20539	31.54621	22.70751	15.93447
77020	3.11818	2.87411	2.45890	14.12356	12.71778	11.56190	24.36797	15.82579	9.33303	9.26663	9.00158	8.52214	7.58432	6.22770	5.20360	31.55593	22.70884	15.93275
77180	3.11615	2.87260	2.45861	14.12257	12.71660	11.56297	24.44567	15.83536	9.33514	9.26753	9.00065	8.52222	7.58658	6.23195	5.20273	31.52636	22.70352	15.93289
77350	3.11562	2.87720	2.46189	14.12193	12.71745	11.56280	24.51798	15.84831	9.33851	9.26818	9.00180	8.52340	7.58848	6.23288	5.20304	31.53855	22.69871	15.93046	32.97	6.0	0.00	-2.04	0.01740	0.01203	0.01522	0.01815	0.01881	0.01471	0.00548	0.01520	0.02017	0.01855	0.01285	0.01637	0.01714	0.01773	0.01384	0.00567	0.01597	0.02135
77520	3.11622	2.87760	2.45933	14.12055	12.71707	11.56225	24.54120	15.85035	9.34185	9.26892	9.00166	8.52379	7.59309	6.23500	5.20449	31.55010	22.70421	15.93075
77680	3.11621	2.87508	2.45858	14.11893	12.71365	11.55833	24.48666	15.85035	9.34124	9.26620	8.99739	8.51961	7.59583	6.23529	5.20800	31.54178	22.70250	15.93055
77850	3.11901	2.87946	2.46381	14.12186	12.71667	11.55973	24.55625	15.85019	9.33871	9.26762	8.99961	8.52173	7.59304	6.23361	5.20240	31.56491	22.70288	15.92707
78010	3.11648	2.87617	2.45960	14.11937	12.71434	11.56163	24.46058	15.83792	9.33886	9.26668	8.99945	8.52183	7.58923	6.23085	5.19996	31.56121	22.70231	15.92951
78180	3.11643	2.87726	2.46093	14.12007	12.71776	11.55968	24.44486	15.83256	9.34182	9.26799	9.00098	8.52323	7.59014	6.23147	5.20402	31.55936	22.69928	15.92867
78340	3.11514	2.87383	2.45756	14.11801	12.71341	11.55706	24.41106	15.83704	9.33477	9.26626	8.99753	8.52106	7.58783	6.23110	5.20240	31.49844	22.69946	15.92978
78510	3.11497	2.87615	2.45897	14.11976	12.71641	11.55905	24.42835	15.83256	9.33914	9.26952	9.00080	8.52434	7.59163	6.23091	5.20344	31.53809	22.69921	15.93098
78670	3.11667	2.87651	2.45935	14.11969	12.71396	11.55948	24.43430	15.83685	9.33645	9.26908	8.99961	8.52247	7.58891	6.23682	5.20242	31.53670	22.70244	15.92992
78840	3.11805	2.87694	2.46018	14.12055	12.71663	11.56163	24.46628	15.83087	9.33783	9.26780	9.00060	8.52230	7.58932	6.23116	5.20160	31.56584	22.69675	15.92524
79000	3.11635	2.87653	2.46297	14.11696	12.71505	11.56149	24.42159	15.83693	9.33808	9.27029	9.00055	8.52388	7.59345	6.23197	5.20391	31.52133	22.70330	15.92904	32.97	6.1	0.00	-2.04	0.01740	0.01203	0.01522	0.01815	0.01881	0.01471	0.00548	0.01520	0.02017	0.01855	0.01285	0.01637	0.01714	0.01773	0.01384	0.00567	0.01597	0.02135
79170	3.11519	2.87590	2.45879	14.11799	12.71287	11.55850	24.35319	15.83363	9.33757	9.26762	8.99880	8.52097	7.58932	6.22941	5.20341	31.52179	22.70096	15.92590
79330	3.11393	2.87312	2.45781	14.11508	12.71345	11.55784	24.38572	15.83218	9.33319	9.26715	8.99627	8.52004	7.59019	6.23120	5.20297	31.52363	22.69963	15.92859
79500	3.11354	2.87118	2.45864	14.11701	12.71443	11.56008	24.44757	15.83313	9.33463	9.26941	8.99880	8.52212	7.58475	6.22973	5.20243	31.56291	22.69944	15.92994
